WE1 Volts(mV)    WE1 Idir (uA) 
-600.260900 	 -4.764214 
-600.021700 	 -4.748374 
-599.530800 	 -4.722620 
-598.783600 	 -4.690328 
-597.776100 	 -4.648263 
-596.768200 	 -4.615717 
-595.764800 	 -4.585098 
-594.759000 	 -4.554930 
-593.755600 	 -4.526753 
-592.756800 	 -4.498256 
-591.738600 	 -4.471180 
-590.750500 	 -4.445351 
-589.749800 	 -4.420071 
-588.757600 	 -4.397910 
-587.785500 	 -4.375111 
-586.776100 	 -4.351435 
-585.796300 	 -4.328362 
-584.800500 	 -4.304062 
-583.802700 	 -4.280589 
-582.811100 	 -4.258049 
-581.806500 	 -4.236205 
-580.797500 	 -4.213390 
-579.780400 	 -4.190564 
-578.779300 	 -4.168385 
-577.784500 	 -4.147700 
-576.806700 	 -4.127666 
-575.810100 	 -4.108895 
-574.803200 	 -4.089340 
-573.791600 	 -4.068083 
-572.770500 	 -4.048318 
-571.785300 	 -4.028662 
-570.804200 	 -4.008770 
-569.829800 	 -3.989545 
-568.823200 	 -3.969312 
-567.789200 	 -3.948061 
-566.772000 	 -3.927920 
-565.742200 	 -3.909068 
-564.752600 	 -3.890806 
-563.776800 	 -3.873549 
-562.789600 	 -3.855623 
-561.801000 	 -3.838259 
-560.797500 	 -3.819655 
-559.820100 	 -3.801702 
-558.828900 	 -3.783924 
-557.832200 	 -3.764016 
-556.845500 	 -3.744976 
-555.810100 	 -3.724836 
-554.781600 	 -3.704965 
-553.771600 	 -3.686650 
-552.782500 	 -3.669838 
-551.788500 	 -3.653696 
-550.803300 	 -3.638032 
-549.810200 	 -3.621264 
-548.784700 	 -3.604130 
-547.789300 	 -3.585602 
-546.772200 	 -3.566526 
-545.775900 	 -3.548148 
-544.769000 	 -3.529011 
-543.772500 	 -3.511656 
-542.788400 	 -3.494979 
-541.772000 	 -3.476881 
-540.789200 	 -3.460306 
-539.790900 	 -3.444152 
-538.801300 	 -3.427403 
-537.840500 	 -3.412382 
-536.848500 	 -3.395592 
-535.842800 	 -3.377430 
-534.822500 	 -3.360496 
-533.794700 	 -3.342762 
-532.796800 	 -3.326139 
-531.789200 	 -3.310161 
-530.806400 	 -3.291972 
-529.805100 	 -3.274057 
-528.787800 	 -3.255384 
-527.800000 	 -3.238395 
-526.780000 	 -3.223395 
-525.778200 	 -3.208216 
-524.781200 	 -3.194460 
-523.777800 	 -3.178703 
-522.779500 	 -3.162036 
-521.789900 	 -3.146509 
-520.796100 	 -3.129724 
-519.788500 	 -3.113601 
-518.803200 	 -3.097336 
-517.787300 	 -3.078988 
-516.778000 	 -3.062542 
-515.759500 	 -3.045875 
-514.745000 	 -3.030896 
-513.748200 	 -3.017802 
-512.740300 	 -3.003091 
-511.766400 	 -2.989453 
-510.793500 	 -2.974791 
-509.792700 	 -2.959124 
-508.810900 	 -2.944656 
-507.817900 	 -2.929159 
-506.802600 	 -2.912951 
-505.823300 	 -2.898613 
-504.806800 	 -2.883005 
-503.783500 	 -2.868084 
-502.775900 	 -2.854488 
-501.783300 	 -2.839667 
-500.793200 	 -2.826182 
-499.811500 	 -2.812398 
-498.826400 	 -2.798748 
-497.801800 	 -2.784649 
-496.804400 	 -2.769083 
-495.802400 	 -2.754244 
-494.807600 	 -2.739259 
-493.816800 	 -2.724516 
-492.818700 	 -2.711532 
-491.823500 	 -2.697315 
-490.805800 	 -2.681926 
-489.829300 	 -2.669560 
-488.817100 	 -2.656594 
-487.811400 	 -2.644819 
-486.833600 	 -2.634467 
-485.813100 	 -2.621487 
-484.831400 	 -2.608328 
-483.830400 	 -2.594584 
-482.814400 	 -2.582144 
-481.824300 	 -2.569869 
-480.811700 	 -2.557610 
-479.840000 	 -2.545344 
-478.854100 	 -2.531775 
-477.845000 	 -2.518221 
-476.841100 	 -2.507343 
-475.835700 	 -2.496827 
-474.813300 	 -2.486086 
-473.816600 	 -2.476750 
-472.818600 	 -2.464537 
-471.807900 	 -2.453060 
-470.825600 	 -2.441651 
-469.838300 	 -2.429881 
-468.852600 	 -2.418573 
-467.861300 	 -2.405788 
-466.860000 	 -2.394461 
-465.832700 	 -2.382646 
-464.809600 	 -2.371113 
-463.786400 	 -2.362258 
-462.777400 	 -2.352932 
-461.780000 	 -2.343536 
-460.791300 	 -2.334983 
-459.809400 	 -2.324939 
-458.816400 	 -2.313980 
-457.835300 	 -2.303035 
-456.839100 	 -2.291471 
-455.831100 	 -2.279764 
-454.845000 	 -2.269197 
-453.822300 	 -2.259010 
-452.809300 	 -2.249498 
-451.810600 	 -2.241046 
-450.806500 	 -2.231848 
-449.808200 	 -2.222987 
-448.829100 	 -2.214243 
-447.844100 	 -2.204830 
-446.854900 	 -2.195259 
-445.858700 	 -2.184341 
-444.866500 	 -2.176123 
-443.872700 	 -2.166458 
-442.846200 	 -2.157681 
-441.862300 	 -2.150468 
-440.863500 	 -2.139699 
-439.834700 	 -2.129551 
-438.850700 	 -2.119511 
-437.835300 	 -2.109233 
-436.818700 	 -2.099732 
-435.831100 	 -2.090410 
-434.835700 	 -2.081904 
-433.849200 	 -2.072447 
-432.866600 	 -2.063629 
-431.865400 	 -2.056270 
-430.843800 	 -2.047029 
-429.828400 	 -2.037237 
-428.813400 	 -2.028050 
-427.800800 	 -2.018023 
-426.804400 	 -2.009358 
-425.805500 	 -2.003151 
-424.792100 	 -1.994883 
-423.809400 	 -1.986866 
-422.816100 	 -1.978794 
-421.812300 	 -1.969679 
-420.823200 	 -1.960146 
-419.822400 	 -1.950583 
-418.809300 	 -1.939517 
-417.814000 	 -1.928021 
-416.798600 	 -1.917742 
-415.769300 	 -1.907787 
-414.780900 	 -1.899437 
-413.748800 	 -1.890644 
-412.756300 	 -1.883894 
-411.781200 	 -1.876297 
-410.775400 	 -1.867191 
-409.826200 	 -1.859251 
-408.832300 	 -1.847762 
-407.825900 	 -1.836042 
-406.831100 	 -1.825009 
-405.814000 	 -1.813877 
-404.816700 	 -1.803583 
-403.818500 	 -1.793987 
-402.808100 	 -1.784046 
-401.811300 	 -1.773902 
-400.801400 	 -1.762674 
-399.804800 	 -1.752634 
-398.818100 	 -1.742154 
-397.814500 	 -1.730496 
-396.825400 	 -1.719565 
-395.828000 	 -1.706467 
-394.832700 	 -1.693234 
-393.852100 	 -1.681010 
-392.833500 	 -1.668666 
-391.836000 	 -1.655519 
-390.847200 	 -1.642460 
-389.840000 	 -1.628910 
-388.880200 	 -1.616338 
-387.883300 	 -1.603660 
-386.858000 	 -1.591389 
-385.855900 	 -1.578752 
-384.839200 	 -1.563558 
-383.842400 	 -1.549537 
-382.868300 	 -1.534648 
-381.871500 	 -1.518788 
-380.872400 	 -1.504082 
-379.869200 	 -1.487762 
-378.884400 	 -1.470370 
-377.893600 	 -1.453738 
-376.898000 	 -1.436971 
-375.891800 	 -1.420154 
-374.863800 	 -1.403903 
-373.851400 	 -1.386833 
-372.850300 	 -1.369603 
-371.862900 	 -1.353322 
-370.850100 	 -1.336018 
-369.856000 	 -1.317939 
-368.854700 	 -1.297344 
-367.863700 	 -1.275512 
-366.874100 	 -1.253444 
-365.861700 	 -1.230314 
-364.856900 	 -1.209691 
-363.845200 	 -1.187728 
-362.845800 	 -1.165735 
-361.849100 	 -1.145334 
-360.844000 	 -1.123501 
-359.844700 	 -1.101350 
-358.853300 	 -1.079005 
-357.867700 	 -1.053420 
-356.873800 	 -1.026221 
-355.877500 	 -0.998958 
-354.874100 	 -0.971233 
-353.862400 	 -0.945064 
-352.862300 	 -0.919726 
-351.864800 	 -0.895212 
-350.857700 	 -0.869236 
-349.864300 	 -0.840070 
-348.873800 	 -0.811797 
-347.878700 	 -0.781511 
-346.893800 	 -0.748773 
-345.882600 	 -0.719069 
-344.879200 	 -0.686843 
-343.863700 	 -0.653965 
-342.860000 	 -0.624102 
-341.868400 	 -0.591059 
-340.886500 	 -0.558764 
-339.891100 	 -0.526416 
-338.882500 	 -0.493339 
-337.889300 	 -0.459388 
-336.859700 	 -0.423144 
-335.838000 	 -0.388706 
-334.840900 	 -0.353805 
-333.835900 	 -0.318980 
-332.860900 	 -0.287449 
-331.891000 	 -0.253955 
-330.910000 	 -0.216977 
-329.917800 	 -0.181474 
-328.910300 	 -0.142009 
-327.904700 	 -0.101201 
-326.900600 	 -0.063021 
-325.900400 	 -0.024057 
-324.892200 	 0.013505 
-323.899800 	 0.051944 
-322.885400 	 0.087723 
-321.876200 	 0.122601 
-320.900300 	 0.158685 
-319.901300 	 0.192770 
-318.917100 	 0.230600 
-317.916600 	 0.273907 
-316.895600 	 0.313956 
-315.901900 	 0.354494 
-314.889200 	 0.394520 
-313.888800 	 0.428773 
-312.889900 	 0.464907 
-311.862300 	 0.501000 
-310.843800 	 0.536665 
-309.832600 	 0.572612 
-308.845500 	 0.606264 
-307.856800 	 0.641110 
-306.866800 	 0.674917 
-305.856300 	 0.709142 
-304.828500 	 0.745498 
-303.848300 	 0.776760 
-302.861300 	 0.805959 
-301.885900 	 0.836323 
-300.910700 	 0.861676 
-299.886200 	 0.889696 
-298.896500 	 0.919109 
-297.908100 	 0.943268 
-296.901100 	 0.971602 
-295.930100 	 0.997507 
-294.931600 	 1.022750 
-293.936700 	 1.049428 
-292.935200 	 1.073121 
-291.934200 	 1.095791 
-290.935800 	 1.115773 
-289.936400 	 1.134284 
-288.944400 	 1.152871 
-287.928600 	 1.170465 
-286.927200 	 1.188619 
-285.908800 	 1.207680 
-284.900100 	 1.222419 
-283.899700 	 1.236130 
-282.894000 	 1.249561 
-281.917000 	 1.257180 
-280.929800 	 1.267077 
-279.917700 	 1.276136 
-278.926500 	 1.281479 
-277.922800 	 1.288413 
-276.930200 	 1.294469 
-275.955900 	 1.299570 
-274.949400 	 1.303586 
-273.954800 	 1.307320 
-272.937800 	 1.312458 
-271.936800 	 1.314160 
-270.925300 	 1.314620 
-269.887000 	 1.316653 
-268.905600 	 1.310033 
-267.876500 	 1.305583 
-266.864700 	 1.301390 
-265.891900 	 1.292434 
-264.881900 	 1.285784 
-263.910400 	 1.277289 
-262.923000 	 1.266886 
-261.918500 	 1.260760 
-260.912700 	 1.252546 
-259.890200 	 1.245532 
-258.883400 	 1.236427 
-257.862700 	 1.221757 
-256.868800 	 1.205548 
-255.886700 	 1.186369 
-254.912700 	 1.169191 
-253.916100 	 1.156142 
-252.920400 	 1.140710 
-251.918500 	 1.127831 
-250.882300 	 1.113940 
-249.883800 	 1.094141 
-248.884600 	 1.079267 
-247.872200 	 1.063248 
-246.910800 	 1.044057 
-245.918800 	 1.025969 
-244.929000 	 1.005609 
-243.934000 	 0.984058 
-242.925000 	 0.965711 
-241.934100 	 0.949553 
-240.893300 	 0.935329 
-239.881400 	 0.918435 
-238.886100 	 0.899959 
-237.874700 	 0.881663 
-236.883900 	 0.857587 
-235.877500 	 0.837514 
-234.861700 	 0.820338 
-233.882200 	 0.798437 
-232.877600 	 0.782044 
-231.885000 	 0.765514 
-230.886600 	 0.746237 
-229.881000 	 0.729553 
-228.905000 	 0.712781 
-227.910600 	 0.694280 
-226.919600 	 0.674678 
-225.916000 	 0.655041 
-224.908900 	 0.636177 
-223.923800 	 0.616662 
-222.935900 	 0.601003 
-221.919000 	 0.589853 
-220.917300 	 0.574944 
-219.907900 	 0.561713 
-218.899300 	 0.547426 
-217.921700 	 0.527824 
-216.912900 	 0.511768 
-215.920400 	 0.497244 
-214.900000 	 0.482102 
-213.903600 	 0.468205 
-212.921400 	 0.455287 
-211.910800 	 0.441221 
-210.917100 	 0.428794 
-209.886000 	 0.416374 
-208.864000 	 0.405508 
-207.872300 	 0.391165 
-206.886100 	 0.375940 
-205.897000 	 0.363092 
-204.908200 	 0.347557 
-203.892400 	 0.338084 
-202.884900 	 0.330885 
-201.889000 	 0.320291 
-200.905200 	 0.310128 
-199.919500 	 0.298440 
-198.928100 	 0.284841 
-197.950600 	 0.274330 
-196.944200 	 0.264680 
-195.931100 	 0.256418 
-194.928100 	 0.248773 
-193.918000 	 0.240567 
-192.928000 	 0.235301 
-191.950200 	 0.228218 
-190.938500 	 0.222378 
-189.932600 	 0.218280 
-188.934100 	 0.209757 
-187.939200 	 0.202102 
-186.950200 	 0.195846 
-185.964200 	 0.186948 
-184.966000 	 0.182012 
-183.980500 	 0.178074 
-182.983500 	 0.173163 
-181.973500 	 0.169752 
-180.949900 	 0.164964 
-179.921300 	 0.160742 
-178.934900 	 0.156504 
-177.932400 	 0.152137 
-176.944300 	 0.150697 
-175.962300 	 0.146000 
-174.963000 	 0.141918 
-173.977400 	 0.139790 
-172.978300 	 0.134579 
-171.977200 	 0.133802 
-170.966400 	 0.134608 
-169.944800 	 0.133073 
-168.948200 	 0.132685 
-167.926100 	 0.130234 
-166.949800 	 0.126112 
-165.962700 	 0.125651 
-164.958900 	 0.125094 
-163.985600 	 0.125361 
-162.951700 	 0.125442 
-161.947500 	 0.122831 
-160.945200 	 0.122064 
-159.917600 	 0.120457 
-158.914200 	 0.120754 
-157.897100 	 0.123470 
-156.889200 	 0.122074 
-155.889200 	 0.122313 
-154.896300 	 0.122725 
-153.919900 	 0.121361 
-152.932500 	 0.125225 
-151.933300 	 0.127665 
-150.932500 	 0.127901 
-149.933500 	 0.128747 
-148.947100 	 0.127188 
-147.986100 	 0.126314 
-147.004500 	 0.126963 
-146.003800 	 0.128555 
-144.985000 	 0.131796 
-143.977100 	 0.133592 
-142.967600 	 0.138092 
-141.963000 	 0.143290 
-140.969100 	 0.143213 
-139.985300 	 0.146062 
-138.995300 	 0.148181 
-138.005600 	 0.148894 
-136.982500 	 0.152037 
-135.951000 	 0.155092 
-134.945300 	 0.158049 
-133.938800 	 0.163538 
-132.973300 	 0.167943 
-131.972300 	 0.173133 
-130.982600 	 0.174712 
-129.984400 	 0.175799 
-128.994800 	 0.180739 
-128.031700 	 0.183521 
-127.031100 	 0.188419 
-126.021600 	 0.192147 
-125.021300 	 0.193342 
-123.999000 	 0.198085 
-122.994400 	 0.203779 
-122.013400 	 0.204798 
-120.995700 	 0.210960 
-119.983300 	 0.215116 
-118.980700 	 0.218352 
-117.982100 	 0.225540 
-116.984400 	 0.231760 
-115.981400 	 0.237225 
-114.985200 	 0.242247 
-113.972900 	 0.248025 
-112.960900 	 0.252262 
-111.971100 	 0.253780 
-110.969300 	 0.257463 
-109.960300 	 0.264319 
-108.969200 	 0.267159 
-107.956400 	 0.275867 
-106.934200 	 0.288506 
-105.926300 	 0.296596 
-104.900600 	 0.305018 
-103.901200 	 0.308571 
-102.912200 	 0.306127 
-101.922400 	 0.305320 
-100.934500 	 0.308706 
-99.928360 	 0.313477 
-98.928450 	 0.320190 
-97.941390 	 0.325937 
-96.942490 	 0.331741 
-95.951100 	 0.340062 
-94.949940 	 0.344915 
-93.959720 	 0.354366 
-92.953090 	 0.358263 
-91.943510 	 0.359955 
-90.936730 	 0.367075 
-89.929080 	 0.368679 
-88.953210 	 0.376721 
-87.972660 	 0.385949 
-86.976720 	 0.392836 
-85.969730 	 0.399151 
-84.966960 	 0.402380 
-83.953640 	 0.407707 
-82.957400 	 0.412136 
-81.973950 	 0.417501 
-80.954420 	 0.427071 
-79.958740 	 0.432514 
-78.958050 	 0.438383 
-77.955140 	 0.450227 
-76.987320 	 0.454791 
-75.993440 	 0.461277 
-74.993870 	 0.468942 
-73.989120 	 0.469158 
-72.977970 	 0.473919 
-71.979410 	 0.478876 
-70.992040 	 0.482157 
-70.004650 	 0.491384 
-69.024800 	 0.499312 
-68.007550 	 0.509220 
-67.008040 	 0.518672 
-65.996980 	 0.523248 
-64.969320 	 0.530994 
-63.990540 	 0.535550 
-62.982500 	 0.539604 
-61.968660 	 0.549899 
-60.983820 	 0.549424 
-59.980340 	 0.554944 
-58.982470 	 0.561399 
-57.991660 	 0.562352 
-56.980380 	 0.575327 
-55.957700 	 0.583796 
-54.932400 	 0.591688 
-53.918520 	 0.602670 
-52.910840 	 0.607803 
-51.936170 	 0.613152 
-50.964570 	 0.617080 
-49.966910 	 0.618982 
-48.983120 	 0.624095 
-47.981590 	 0.626479 
-46.986410 	 0.633723 
-45.985420 	 0.644749 
-44.965360 	 0.652460 
-43.966040 	 0.665707 
-42.956120 	 0.676170 
-41.962240 	 0.679777 
-40.969190 	 0.687612 
-39.951330 	 0.693064 
-38.950780 	 0.698607 
-37.944580 	 0.711454 
-36.956970 	 0.722924 
-35.950040 	 0.737161 
-34.944660 	 0.754077 
-33.951940 	 0.769820 
-32.951550 	 0.782099 
-31.989960 	 0.783258 
-31.005510 	 0.780142 
-29.987700 	 0.780625 
-28.984980 	 0.778510 
-27.976560 	 0.787830 
-26.958150 	 0.796646 
-25.977410 	 0.795702 
-24.966730 	 0.804356 
-23.953770 	 0.813422 
-22.961120 	 0.825619 
-21.975150 	 0.844274 
-20.980980 	 0.859034 
-19.972820 	 0.871597 
-18.983310 	 0.883073 
-17.966450 	 0.897040 
-16.955140 	 0.916681 
-15.947050 	 0.928526 
-14.941830 	 0.940541 
-13.936720 	 0.947596 
-12.947030 	 0.941508 
-11.965690 	 0.942804 
-10.950850 	 0.946814 
-9.964207 	 0.947659 
-8.969952 	 0.956836 
-7.952698 	 0.967750 
-6.953457 	 0.976568 
-5.939869 	 0.992309 
-4.914724 	 1.006254 
-3.924993 	 1.008992 
-2.950915 	 1.014157 
-1.974128 	 1.018858 
-1.020060 	 1.026840 
-0.062888 	 1.042322 
0.924911 	 1.056806 
1.916854 	 1.074756 
2.913519 	 1.085053 
3.916243 	 1.099531 
4.936600 	 1.115408 
5.930293 	 1.124111 
6.933001 	 1.139929 
7.936319 	 1.154634 
8.912363 	 1.169377 
9.907443 	 1.185419 
10.896170 	 1.201130 
11.894580 	 1.219002 
12.883300 	 1.235085 
13.878280 	 1.252102 
14.879870 	 1.271809 
15.870200 	 1.288221 
16.857830 	 1.310759 
17.869960 	 1.336242 
18.865210 	 1.356319 
19.861580 	 1.378070 
20.883720 	 1.399571 
21.853490 	 1.413252 
22.856890 	 1.431211 
23.862040 	 1.451854 
24.832020 	 1.467281 
25.824200 	 1.490325 
26.809290 	 1.514323 
27.791040 	 1.538455 
28.804050 	 1.562001 
29.816120 	 1.590074 
30.829610 	 1.618524 
31.838540 	 1.644753 
32.838350 	 1.672047 
33.862080 	 1.702953 
34.865720 	 1.728859 
35.869290 	 1.756795 
36.872010 	 1.788482 
37.851270 	 1.812997 
38.842440 	 1.843262 
39.852020 	 1.874630 
40.846170 	 1.904741 
41.851620 	 1.936874 
42.855770 	 1.964271 
43.848550 	 1.995267 
44.844410 	 2.028553 
45.853190 	 2.062762 
46.870460 	 2.106410 
47.886380 	 2.143701 
48.907030 	 2.175879 
49.913780 	 2.214327 
50.889370 	 2.244097 
51.868960 	 2.280288 
52.872670 	 2.320041 
53.854080 	 2.351857 
54.852920 	 2.392045 
55.849540 	 2.430290 
56.836550 	 2.470727 
57.849920 	 2.519591 
58.860770 	 2.564745 
59.883370 	 2.611983 
60.899540 	 2.656754 
61.881310 	 2.694435 
62.883480 	 2.731708 
63.848320 	 2.770476 
64.812060 	 2.812916 
65.829130 	 2.861721 
66.823780 	 2.908262 
67.837570 	 2.958292 
68.860830 	 3.009197 
69.853550 	 3.053140 
70.848500 	 3.105182 
71.865720 	 3.151677 
72.855240 	 3.193075 
73.849610 	 3.236862 
74.840770 	 3.274971 
75.828360 	 3.313827 
76.834760 	 3.356827 
77.833390 	 3.402474 
78.856790 	 3.451126 
79.866070 	 3.493721 
80.852100 	 3.533992 
81.847170 	 3.574187 
82.813260 	 3.605147 
83.789400 	 3.641342 
84.813850 	 3.684539 
85.834780 	 3.719043 
86.836980 	 3.760076 
87.864670 	 3.800824 
88.860420 	 3.831783 
89.860400 	 3.867512 
90.876910 	 3.902591 
91.873000 	 3.933471 
92.862480 	 3.961945 
93.840620 	 3.989165 
94.860900 	 4.020223 
95.864260 	 4.051159 
96.869040 	 4.089815 
97.908040 	 4.135368 
98.905710 	 4.168369 
99.892660 	 4.201657 
100.897200 	 4.232608 
101.868600 	 4.247471 
102.842300 	 4.275019 
103.839100 	 4.305400 
104.827400 	 4.333390 
105.813600 	 4.372368 
106.822500 	 4.408237 
107.831900 	 4.446232 
108.840300 	 4.485396 
109.845900 	 4.522229 
110.853400 	 4.564219 
111.833500 	 4.594823 
112.824400 	 4.623127 
113.837600 	 4.658174 
114.803100 	 4.683052 
115.799900 	 4.718462 
116.798900 	 4.762653 
117.785900 	 4.796066 
118.788800 	 4.840492 
119.804200 	 4.881878 
120.796500 	 4.915925 
121.789400 	 4.956614 
122.823500 	 4.989334 
123.828900 	 5.023611 
124.825900 	 5.056237 
125.821400 	 5.085299 
126.800500 	 5.119915 
127.790800 	 5.153650 
128.785900 	 5.190271 
129.794100 	 5.234432 
130.793200 	 5.266975 
131.785400 	 5.297670 
132.789200 	 5.329373 
133.780000 	 5.354493 
134.766700 	 5.388942 
135.760400 	 5.426667 
136.770300 	 5.463746 
137.785800 	 5.503012 
138.819200 	 5.536855 
139.814200 	 5.569440 
140.805700 	 5.601306 
141.788500 	 5.629697 
142.765500 	 5.663091 
143.769000 	 5.691620 
144.786000 	 5.722224 
145.797700 	 5.760949 
146.795000 	 5.796234 
147.815300 	 5.840076 
148.828700 	 5.885749 
149.819500 	 5.920832 
150.837000 	 5.956268 
151.837600 	 5.984902 
152.810600 	 6.004616 
153.822600 	 6.032605 
154.804000 	 6.061527 
155.789900 	 6.095216 
156.814500 	 6.135104 
157.801600 	 6.173810 
158.800400 	 6.214266 
159.793000 	 6.248114 
160.783400 	 6.282739 
161.800800 	 6.313768 
162.813800 	 6.335531 
163.823900 	 6.362320 
164.814300 	 6.389143 
165.800500 	 6.413025 
166.780600 	 6.447960 
167.787300 	 6.481887 
168.777100 	 6.508697 
169.775400 	 6.542397 
170.797900 	 6.565312 
171.780900 	 6.585348 
172.784600 	 6.605823 
173.771900 	 6.624493 
174.783100 	 6.650908 
175.805300 	 6.670356 
176.794300 	 6.689796 
177.795300 	 6.708609 
178.757500 	 6.719017 
179.754900 	 6.735717 
180.770800 	 6.756066 
181.771300 	 6.763906 
182.788500 	 6.781199 
183.792200 	 6.799067 
184.795500 	 6.808556 
185.795800 	 6.826625 
186.814500 	 6.836484 
187.793600 	 6.841449 
188.781100 	 6.847441 
189.790200 	 6.849642 
190.781000 	 6.854224 
191.792800 	 6.858144 
192.802600 	 6.870134 
193.826900 	 6.885277 
194.810600 	 6.890750 
195.794500 	 6.897884 
196.819400 	 6.900517 
197.809600 	 6.891798 
198.806700 	 6.893270 
199.825700 	 6.895880 
200.823400 	 6.892619 
201.820000 	 6.895623 
202.835200 	 6.896913 
203.843800 	 6.894934 
204.821100 	 6.893486 
205.812000 	 6.892433 
206.801800 	 6.891088 
207.797600 	 6.881701 
208.789400 	 6.875546 
209.793500 	 6.872313 
210.789800 	 6.861631 
211.769900 	 6.860067 
212.776300 	 6.863298 
213.778800 	 6.857128 
214.783900 	 6.855064 
215.800800 	 6.850776 
216.792400 	 6.837972 
217.754700 	 6.827137 
218.752300 	 6.817701 
219.743800 	 6.810839 
220.759000 	 6.803784 
221.790200 	 6.800288 
222.773800 	 6.797627 
223.773900 	 6.789560 
224.761600 	 6.782150 
225.783500 	 6.778441 
226.794000 	 6.765007 
227.787800 	 6.750613 
228.798200 	 6.739416 
229.766300 	 6.720245 
230.751000 	 6.710663 
231.726500 	 6.706115 
232.721600 	 6.699779 
233.735300 	 6.694334 
234.750300 	 6.684740 
235.765300 	 6.673038 
