WE1 Volts(mV)    WE1 Idir (uA) 
-600.227700 	 -4.804494 
-599.994100 	 -4.787866 
-599.508700 	 -4.763984 
-598.773600 	 -4.734807 
-597.773100 	 -4.696424 
-596.774400 	 -4.671015 
-595.789600 	 -4.646158 
-594.799000 	 -4.620097 
-593.787000 	 -4.596600 
-592.778700 	 -4.571237 
-591.754000 	 -4.546437 
-590.732800 	 -4.522670 
-589.757200 	 -4.499606 
-588.767000 	 -4.477918 
-587.766400 	 -4.457076 
-586.779400 	 -4.436112 
-585.787400 	 -4.415918 
-584.789900 	 -4.395586 
-583.807400 	 -4.375404 
-582.822300 	 -4.355932 
-581.827800 	 -4.334127 
-580.815900 	 -4.312582 
-579.786600 	 -4.290093 
-578.765500 	 -4.268604 
-577.744100 	 -4.250069 
-576.749500 	 -4.230474 
-575.768700 	 -4.211550 
-574.780000 	 -4.192064 
-573.775600 	 -4.171741 
-572.783800 	 -4.155046 
-571.791800 	 -4.137336 
-570.778600 	 -4.119670 
-569.785600 	 -4.102170 
-568.772500 	 -4.082110 
-567.745400 	 -4.063184 
-566.750400 	 -4.046419 
-565.747600 	 -4.028836 
-564.760800 	 -4.011425 
-563.794900 	 -3.993592 
-562.800500 	 -3.973216 
-561.800000 	 -3.955632 
-560.785000 	 -3.938918 
-559.770800 	 -3.923535 
-558.770100 	 -3.908614 
-557.786600 	 -3.891358 
-556.803000 	 -3.874778 
-555.806600 	 -3.856853 
-554.803200 	 -3.839335 
-553.812000 	 -3.822599 
-552.800100 	 -3.802843 
-551.795400 	 -3.785207 
-550.795300 	 -3.768088 
-549.765300 	 -3.750585 
-548.759900 	 -3.735393 
-547.750200 	 -3.719718 
-546.756300 	 -3.704031 
-545.768000 	 -3.689494 
-544.772300 	 -3.674106 
-543.804800 	 -3.658537 
-542.812900 	 -3.641484 
-541.793100 	 -3.622434 
-540.788600 	 -3.605062 
-539.773200 	 -3.587175 
-538.772900 	 -3.570237 
-537.791900 	 -3.556139 
-536.789700 	 -3.539421 
-535.789100 	 -3.523462 
-534.784900 	 -3.508201 
-533.777700 	 -3.492598 
-532.786600 	 -3.477731 
-531.788100 	 -3.461687 
-530.778900 	 -3.445108 
-529.807300 	 -3.428001 
-528.797700 	 -3.410616 
-527.795300 	 -3.395840 
-526.803300 	 -3.379915 
-525.769800 	 -3.362497 
-524.787800 	 -3.347018 
-523.786300 	 -3.330582 
-522.768700 	 -3.315089 
-521.788100 	 -3.302914 
-520.786000 	 -3.288942 
-519.782600 	 -3.273930 
-518.783300 	 -3.259165 
-517.759900 	 -3.242643 
-516.755700 	 -3.227674 
-515.747200 	 -3.212214 
-514.752900 	 -3.197048 
-513.788500 	 -3.180737 
-512.767300 	 -3.163646 
-511.764200 	 -3.149226 
-510.772000 	 -3.134078 
-509.747400 	 -3.119808 
-508.760300 	 -3.106690 
-507.773300 	 -3.091651 
-506.784400 	 -3.077389 
-505.794000 	 -3.063008 
-504.814200 	 -3.047973 
-503.809300 	 -3.032825 
-502.793200 	 -3.017639 
-501.793000 	 -3.002980 
-500.775800 	 -2.987259 
-499.789600 	 -2.973148 
-498.807500 	 -2.958515 
-497.802900 	 -2.942250 
-496.812300 	 -2.927528 
-495.806300 	 -2.912043 
-494.812500 	 -2.896363 
-493.810000 	 -2.881659 
-492.836100 	 -2.866060 
-491.826300 	 -2.849824 
-490.804400 	 -2.834110 
-489.804600 	 -2.818683 
-488.787400 	 -2.807099 
-487.811100 	 -2.792746 
-486.833600 	 -2.779091 
-485.842300 	 -2.763761 
-484.863300 	 -2.746966 
-483.856500 	 -2.733307 
-482.855600 	 -2.719289 
-481.870000 	 -2.705176 
-480.844300 	 -2.688470 
-479.856500 	 -2.671779 
-478.852100 	 -2.653477 
-477.830300 	 -2.634490 
-476.822200 	 -2.616150 
-475.820600 	 -2.597965 
-474.795000 	 -2.580398 
-473.822200 	 -2.565514 
-472.813700 	 -2.551173 
-471.806400 	 -2.537196 
-470.819000 	 -2.522259 
-469.786800 	 -2.505558 
-468.796000 	 -2.488240 
-467.783600 	 -2.468663 
-466.786000 	 -2.447892 
-465.779200 	 -2.427678 
-464.763300 	 -2.405022 
-463.769700 	 -2.384731 
-462.760500 	 -2.366295 
-461.785600 	 -2.346953 
-460.819700 	 -2.330195 
-459.811100 	 -2.311729 
-458.808200 	 -2.292216 
-457.805600 	 -2.274353 
-456.786300 	 -2.251968 
-455.798700 	 -2.228508 
-454.811700 	 -2.206132 
-453.803300 	 -2.180317 
-452.819300 	 -2.157750 
-451.804200 	 -2.135618 
-450.786700 	 -2.111446 
-449.807400 	 -2.089062 
-448.790100 	 -2.066020 
-447.796100 	 -2.043593 
-446.811900 	 -2.020060 
-445.806600 	 -1.994329 
-444.817700 	 -1.969084 
-443.815900 	 -1.940907 
-442.817800 	 -1.912102 
-441.809000 	 -1.886622 
-440.810900 	 -1.856982 
-439.793700 	 -1.826111 
-438.794900 	 -1.796409 
-437.806200 	 -1.761898 
-436.807800 	 -1.729802 
-435.849700 	 -1.698572 
-434.844200 	 -1.666888 
-433.829800 	 -1.634479 
-432.808900 	 -1.599042 
-431.800200 	 -1.566379 
-430.810500 	 -1.531298 
-429.813900 	 -1.493162 
-428.845400 	 -1.458266 
-427.845500 	 -1.415916 
-426.835400 	 -1.368685 
-425.819100 	 -1.326885 
-424.806000 	 -1.281770 
-423.797100 	 -1.238384 
-422.787000 	 -1.199593 
-421.812200 	 -1.157639 
-420.802100 	 -1.113573 
-419.800500 	 -1.066767 
-418.814100 	 -1.018446 
-417.799300 	 -0.966043 
-416.787400 	 -0.907528 
-415.777000 	 -0.850557 
-414.752100 	 -0.790883 
-413.727200 	 -0.727390 
-412.713700 	 -0.672793 
-411.712400 	 -0.617877 
-410.728000 	 -0.562490 
-409.751300 	 -0.510800 
-408.782900 	 -0.453084 
-407.796600 	 -0.389609 
-406.789800 	 -0.322200 
-405.792500 	 -0.251998 
-404.785500 	 -0.181912 
-403.777800 	 -0.110952 
-402.786700 	 -0.041841 
-401.788900 	 0.028112 
-400.764700 	 0.105420 
-399.759100 	 0.180722 
-398.765600 	 0.257164 
-397.770400 	 0.340107 
-396.813000 	 0.417504 
-395.821700 	 0.500947 
-394.826300 	 0.590198 
-393.820600 	 0.675152 
-392.809600 	 0.763637 
-391.822800 	 0.848580 
-390.831800 	 0.932146 
-389.822600 	 1.024925 
-388.808200 	 1.118770 
-387.809400 	 1.223821 
-386.807300 	 1.328993 
-385.826600 	 1.429530 
-384.844000 	 1.531804 
-383.831200 	 1.628778 
-382.845600 	 1.727906 
-381.846300 	 1.833980 
-380.843900 	 1.934999 
-379.862000 	 2.040171 
-378.866600 	 2.151233 
-377.867400 	 2.260513 
-376.873100 	 2.387183 
-375.853600 	 2.516550 
-374.819900 	 2.643495 
-373.817100 	 2.771153 
-372.817800 	 2.885582 
-371.856200 	 2.996895 
-370.877900 	 3.110646 
-369.899700 	 3.229920 
-368.914400 	 3.360806 
-367.877900 	 3.493546 
-366.866600 	 3.632331 
-365.827000 	 3.776855 
-364.809800 	 3.911194 
-363.807700 	 4.051692 
-362.806800 	 4.194138 
-361.814000 	 4.320613 
-360.818100 	 4.452260 
-359.840900 	 4.581960 
-358.836700 	 4.703656 
-357.832500 	 4.840557 
-356.833400 	 4.984840 
-355.820600 	 5.131799 
-354.827400 	 5.278649 
-353.856800 	 5.421988 
-352.869600 	 5.559980 
-351.889500 	 5.689688 
-350.902500 	 5.826114 
-349.888900 	 5.971994 
-348.883900 	 6.108987 
-347.881800 	 6.251368 
-346.872400 	 6.399189 
-345.890400 	 6.532838 
-344.888100 	 6.676522 
-343.885800 	 6.825973 
-342.887300 	 6.965769 
-341.895500 	 7.111015 
-340.899200 	 7.252679 
-339.896800 	 7.393399 
-338.902500 	 7.534750 
-337.882600 	 7.681870 
-336.865400 	 7.842752 
-335.853300 	 7.989163 
-334.839200 	 8.129839 
-333.842500 	 8.274085 
-332.865600 	 8.390672 
-331.870600 	 8.516819 
-330.890000 	 8.655677 
-329.890900 	 8.777594 
-328.898300 	 8.914724 
-327.900800 	 9.055649 
-326.911100 	 9.193786 
-325.912600 	 9.344078 
-324.887100 	 9.491243 
-323.871700 	 9.637475 
-322.847700 	 9.768337 
-321.837200 	 9.879165 
-320.858600 	 9.988960 
-319.880100 	 10.090570 
-318.893900 	 10.198730 
-317.888900 	 10.326680 
-316.861800 	 10.454730 
-315.865300 	 10.583680 
-314.834500 	 10.713560 
-313.845800 	 10.826520 
-312.843500 	 10.940240 
-311.831500 	 11.047780 
-310.832800 	 11.149330 
-309.812500 	 11.250750 
-308.824600 	 11.336790 
-307.813100 	 11.422500 
-306.834000 	 11.514610 
-305.844800 	 11.606720 
-304.833700 	 11.708650 
-303.838100 	 11.801360 
-302.833300 	 11.879180 
-301.839500 	 11.953140 
-300.858500 	 12.010340 
-299.871900 	 12.077160 
-298.875700 	 12.152480 
-297.866900 	 12.222290 
-296.863700 	 12.305760 
-295.856600 	 12.380150 
-294.870100 	 12.439130 
-293.887500 	 12.502800 
-292.880800 	 12.555540 
-291.880200 	 12.596850 
-290.885500 	 12.636300 
-289.893700 	 12.669380 
-288.897400 	 12.704230 
-287.901200 	 12.747180 
-286.877100 	 12.802330 
-285.846600 	 12.868080 
-284.839800 	 12.908420 
-283.836000 	 12.940430 
-282.832100 	 12.956800 
-281.872300 	 12.936110 
-280.904600 	 12.933270 
-279.923200 	 12.935490 
-278.938700 	 12.931210 
-277.925600 	 12.945490 
-276.912200 	 12.960200 
-275.900500 	 12.968290 
-274.891400 	 12.976210 
-273.890600 	 12.980100 
-272.864000 	 12.982320 
-271.861500 	 12.958810 
-270.872300 	 12.927870 
-269.866500 	 12.900860 
-268.888300 	 12.849360 
-267.890300 	 12.817460 
-266.881500 	 12.806030 
-265.882800 	 12.774230 
-264.864200 	 12.750290 
-263.874500 	 12.721820 
-262.880400 	 12.667210 
-261.886100 	 12.611880 
-260.898900 	 12.555040 
-259.859900 	 12.496510 
-258.853500 	 12.428500 
-257.844000 	 12.356900 
-256.831200 	 12.293300 
-255.852700 	 12.215690 
-254.853400 	 12.140380 
-253.847500 	 12.077280 
-252.873700 	 11.983370 
-251.889300 	 11.881020 
-250.907700 	 11.784050 
-249.913300 	 11.669300 
-248.892100 	 11.569760 
-247.865800 	 11.485030 
-246.841700 	 11.400090 
-245.841500 	 11.311910 
-244.863300 	 11.210780 
-243.888200 	 11.101760 
-242.897900 	 10.978290 
-241.903800 	 10.847690 
-240.901800 	 10.728950 
-239.891700 	 10.602310 
-238.891300 	 10.474970 
-237.886600 	 10.368210 
-236.869000 	 10.251670 
-235.868000 	 10.139390 
-234.857500 	 10.034780 
-233.839400 	 9.905540 
-232.831600 	 9.771897 
-231.838200 	 9.626477 
-230.841700 	 9.468185 
-229.861300 	 9.323010 
-228.884700 	 9.180344 
-227.876100 	 9.051003 
-226.872200 	 8.930514 
-225.873600 	 8.802216 
-224.842400 	 8.677018 
-223.848700 	 8.544595 
-222.860300 	 8.404907 
-221.851400 	 8.271889 
-220.868200 	 8.126289 
-219.869100 	 7.981778 
-218.860700 	 7.842391 
-217.870800 	 7.695514 
-216.863800 	 7.568974 
-215.847800 	 7.447381 
-214.852500 	 7.320365 
-213.841700 	 7.197021 
-212.859600 	 7.060836 
-211.867200 	 6.919719 
-210.864300 	 6.784143 
-209.873600 	 6.650995 
-208.850600 	 6.526978 
-207.855000 	 6.400103 
-206.855000 	 6.274827 
-205.834100 	 6.152128 
-204.848400 	 6.018946 
-203.851700 	 5.894712 
-202.844000 	 5.772034 
-201.868300 	 5.638851 
-200.871100 	 5.517515 
-199.865400 	 5.399607 
-198.868000 	 5.280601 
-197.864500 	 5.175730 
-196.866400 	 5.066081 
-195.874600 	 4.958080 
-194.869900 	 4.854412 
-193.876100 	 4.745488 
-192.863600 	 4.643300 
-191.862000 	 4.536784 
-190.889800 	 4.431972 
-189.888900 	 4.339563 
-188.905300 	 4.240135 
-187.916000 	 4.151905 
-186.897000 	 4.065407 
-185.909200 	 3.970237 
-184.908100 	 3.886346 
-183.902700 	 3.800304 
-182.920700 	 3.714606 
-181.904600 	 3.629835 
-180.921200 	 3.545667 
-179.934000 	 3.461281 
-178.948700 	 3.378230 
-177.966500 	 3.302566 
-176.951500 	 3.234319 
-175.953800 	 3.165608 
-174.943700 	 3.099725 
-173.923800 	 3.035774 
-172.939100 	 2.963364 
-171.917100 	 2.894326 
-170.900200 	 2.829103 
-169.903800 	 2.759779 
-168.890400 	 2.696855 
-167.919900 	 2.636569 
-166.928300 	 2.578384 
-165.913800 	 2.523693 
-164.910300 	 2.471608 
-163.891000 	 2.420437 
-162.892900 	 2.365817 
-161.910100 	 2.308860 
-160.908600 	 2.257485 
-159.902700 	 2.204849 
-158.902700 	 2.155613 
-157.884100 	 2.114905 
-156.888500 	 2.069065 
-155.893700 	 2.024681 
-154.879700 	 1.980811 
-153.909300 	 1.932468 
-152.904000 	 1.889539 
-151.923600 	 1.845868 
-150.935300 	 1.804950 
-149.930600 	 1.769300 
-148.945300 	 1.732044 
-147.926100 	 1.699836 
-146.932900 	 1.668720 
-145.935100 	 1.633798 
-144.924000 	 1.603241 
-143.929400 	 1.569532 
-142.915200 	 1.535158 
-141.906600 	 1.503031 
-140.917100 	 1.467238 
-139.930400 	 1.438441 
-138.927900 	 1.411550 
-137.935400 	 1.386661 
-136.938400 	 1.366866 
-135.915700 	 1.344737 
-134.927100 	 1.319899 
-133.910400 	 1.297086 
-132.894300 	 1.271009 
-131.901600 	 1.244246 
-130.913400 	 1.220232 
-129.944700 	 1.194943 
-128.952700 	 1.173448 
-127.972400 	 1.153464 
-126.958700 	 1.138663 
-125.943000 	 1.126627 
-124.925000 	 1.109146 
-123.906800 	 1.095177 
-122.902200 	 1.077638 
-121.906800 	 1.055147 
-120.936400 	 1.040320 
-119.923400 	 1.024057 
-118.924700 	 1.006379 
-117.917200 	 0.992771 
-116.898100 	 0.980599 
-115.902700 	 0.967956 
-114.911800 	 0.957148 
-113.918800 	 0.947421 
-112.909900 	 0.937251 
-111.908400 	 0.924892 
-110.917800 	 0.916545 
-109.897900 	 0.910756 
-108.921600 	 0.898987 
-107.933900 	 0.892900 
-106.913700 	 0.887690 
-105.927200 	 0.876353 
-104.913800 	 0.868526 
-103.894600 	 0.860166 
-102.892300 	 0.846780 
-101.895600 	 0.835206 
-100.912500 	 0.825793 
-99.923080 	 0.818230 
-98.936760 	 0.812009 
-97.932370 	 0.808124 
-96.913450 	 0.804330 
-95.923280 	 0.795380 
-94.925510 	 0.788568 
-93.905330 	 0.785095 
-92.905080 	 0.775202 
-91.908280 	 0.767940 
-90.910530 	 0.762217 
-89.935530 	 0.752124 
-88.952580 	 0.749709 
-87.936930 	 0.750998 
-86.933820 	 0.749464 
-85.926180 	 0.749278 
-84.926880 	 0.744932 
-83.921550 	 0.738226 
-82.916770 	 0.730544 
-81.916810 	 0.723722 
-80.905760 	 0.721992 
-79.924600 	 0.716013 
-78.933010 	 0.712799 
-77.929850 	 0.713845 
-76.926320 	 0.708644 
-75.899620 	 0.708736 
-74.888790 	 0.709679 
-73.893610 	 0.704756 
-72.901860 	 0.702521 
-71.919620 	 0.701726 
-70.934100 	 0.697868 
-69.942710 	 0.697807 
-68.955900 	 0.697177 
-67.943720 	 0.698627 
-66.939040 	 0.698782 
-65.934940 	 0.697057 
-64.927820 	 0.698647 
-63.942230 	 0.694389 
-62.924370 	 0.693185 
-61.920600 	 0.695886 
-60.921410 	 0.693882 
-59.921910 	 0.695865 
-58.923070 	 0.698306 
-57.909540 	 0.696177 
-56.906910 	 0.698480 
-55.890490 	 0.699429 
-54.878720 	 0.698437 
-53.884910 	 0.698776 
-52.863200 	 0.694719 
-51.881140 	 0.691188 
-50.899420 	 0.690159 
-49.887570 	 0.691104 
-48.900870 	 0.698384 
-47.907620 	 0.703365 
-46.916850 	 0.706594 
-45.923380 	 0.709291 
-44.941930 	 0.705088 
-43.929490 	 0.700569 
-42.920520 	 0.703093 
-41.927440 	 0.701806 
-40.915950 	 0.704510 
-39.934910 	 0.709810 
-38.935680 	 0.709113 
-37.937370 	 0.712624 
-36.940640 	 0.717612 
-35.921100 	 0.721653 
-34.957090 	 0.724005 
-33.969140 	 0.723485 
-32.963780 	 0.726854 
-31.968930 	 0.727374 
-30.926760 	 0.731523 
-29.899930 	 0.739786 
-28.900870 	 0.736813 
-27.892400 	 0.741208 
-26.895570 	 0.746411 
-25.922290 	 0.747263 
-24.905130 	 0.755374 
-23.913630 	 0.762629 
-22.915300 	 0.763508 
-21.914560 	 0.769630 
-20.924320 	 0.772557 
-19.911790 	 0.774164 
-18.915880 	 0.778957 
-17.909390 	 0.784971 
-16.904390 	 0.796080 
-15.914360 	 0.800657 
-14.918190 	 0.807632 
-13.917600 	 0.813766 
-12.947170 	 0.813184 
-11.947760 	 0.819404 
-10.929200 	 0.829273 
-9.920404 	 0.832892 
-8.896628 	 0.842074 
-7.890437 	 0.850646 
-6.903117 	 0.856016 
-5.885022 	 0.866007 
-4.876651 	 0.873961 
-3.887267 	 0.873563 
-2.913007 	 0.876407 
-1.990044 	 0.875033 
-1.027721 	 0.880113 
-0.061022 	 0.892848 
0.934999 	 0.903890 
1.974277 	 0.921689 
2.967045 	 0.931008 
3.975053 	 0.940281 
4.994700 	 0.949026 
5.980386 	 0.952784 
6.986148 	 0.963900 
7.974360 	 0.972607 
8.946407 	 0.982650 
9.936270 	 0.994794 
10.927830 	 1.002205 
11.923990 	 1.015706 
12.934770 	 1.030184 
13.942110 	 1.042076 
14.943470 	 1.056122 
15.957740 	 1.065177 
16.945140 	 1.072052 
17.934800 	 1.080839 
18.933580 	 1.088948 
19.937010 	 1.103313 
20.953190 	 1.120157 
21.944470 	 1.134741 
22.944560 	 1.155127 
23.949010 	 1.171356 
24.927440 	 1.183160 
25.922340 	 1.200681 
26.927970 	 1.212700 
27.899630 	 1.225561 
28.918040 	 1.240504 
29.926930 	 1.255061 
30.906010 	 1.272588 
31.917680 	 1.290392 
32.919870 	 1.314803 
33.927780 	 1.340651 
34.929800 	 1.360190 
35.920470 	 1.382397 
36.917300 	 1.400838 
37.908680 	 1.412631 
38.909820 	 1.435740 
39.925750 	 1.459439 
40.908910 	 1.479835 
41.905760 	 1.506932 
42.924200 	 1.531200 
43.914510 	 1.555244 
44.915450 	 1.581275 
45.919310 	 1.608068 
46.932170 	 1.635410 
47.942080 	 1.654557 
48.936390 	 1.677385 
49.932800 	 1.705072 
50.900380 	 1.727413 
51.898820 	 1.761057 
52.900310 	 1.796516 
53.889230 	 1.821808 
54.878150 	 1.852445 
55.865600 	 1.882837 
56.868420 	 1.908605 
57.881420 	 1.941051 
58.883930 	 1.973897 
59.884060 	 2.010241 
60.874820 	 2.045128 
61.871960 	 2.083927 
62.889130 	 2.128371 
63.902260 	 2.166020 
64.894520 	 2.207983 
65.894490 	 2.253871 
66.889240 	 2.287120 
67.854290 	 2.323843 
68.868800 	 2.366642 
69.864670 	 2.402753 
70.877940 	 2.450944 
71.894780 	 2.504703 
72.901050 	 2.556842 
73.910900 	 2.610544 
74.881750 	 2.659648 
75.876590 	 2.707904 
76.876250 	 2.753265 
77.864940 	 2.800068 
78.893030 	 2.854119 
79.887990 	 2.904265 
80.867440 	 2.957684 
81.871640 	 3.020650 
82.857320 	 3.079500 
83.879360 	 3.144427 
84.901780 	 3.213173 
85.923490 	 3.272634 
86.931840 	 3.332676 
87.929660 	 3.390170 
88.912760 	 3.445711 
89.887440 	 3.508209 
90.863480 	 3.572181 
91.851550 	 3.643036 
92.858950 	 3.714755 
93.873500 	 3.783992 
94.904180 	 3.857092 
95.913720 	 3.926148 
96.932140 	 3.995223 
97.927140 	 4.069816 
98.918790 	 4.135280 
99.916570 	 4.203740 
100.913100 	 4.276549 
101.915900 	 4.344310 
102.916000 	 4.423663 
103.917800 	 4.503484 
104.902500 	 4.578489 
105.897600 	 4.658049 
106.879100 	 4.729439 
107.888300 	 4.799039 
108.881700 	 4.870657 
109.861100 	 4.942325 
110.860000 	 5.029386 
111.845200 	 5.112095 
112.843500 	 5.199685 
113.854200 	 5.291564 
114.864200 	 5.367398 
115.840900 	 5.453160 
116.830500 	 5.542355 
117.828200 	 5.621687 
118.838500 	 5.709992 
119.845500 	 5.798041 
120.868400 	 5.879654 
121.875900 	 5.975607 
122.873100 	 6.073764 
123.902700 	 6.173943 
124.902500 	 6.269927 
125.911400 	 6.358986 
126.912900 	 6.448666 
127.903200 	 6.533702 
128.898600 	 6.625184 
129.888600 	 6.730968 
130.876100 	 6.829254 
131.870800 	 6.928044 
132.862700 	 7.027088 
133.850300 	 7.111973 
134.830700 	 7.207106 
135.834000 	 7.309930 
136.844600 	 7.418703 
137.865400 	 7.532014 
138.891000 	 7.636543 
139.875700 	 7.736414 
140.870700 	 7.830760 
141.850800 	 7.919790 
142.840700 	 8.013643 
143.862800 	 8.104657 
144.849600 	 8.195968 
145.869400 	 8.298544 
146.878500 	 8.397023 
147.878700 	 8.506609 
148.920000 	 8.619690 
149.927000 	 8.716658 
150.924600 	 8.813408 
151.916200 	 8.895811 
152.874300 	 8.967121 
153.870800 	 9.047822 
154.870500 	 9.129024 
155.870200 	 9.216939 
156.883200 	 9.311753 
157.864000 	 9.404961 
158.862900 	 9.499262 
159.861200 	 9.587095 
160.873600 	 9.673252 
161.881500 	 9.761273 
162.895800 	 9.834779 
163.895600 	 9.912076 
164.880000 	 9.989297 
165.867500 	 10.055020 
166.843300 	 10.138960 
167.840700 	 10.225680 
168.853700 	 10.306030 
169.876700 	 10.390270 
170.886800 	 10.464760 
171.878300 	 10.528840 
172.850100 	 10.592980 
173.835600 	 10.660140 
174.858100 	 10.733820 
175.880100 	 10.802580 
176.894000 	 10.873170 
177.904100 	 10.944950 
178.862700 	 10.999780 
179.865900 	 11.063260 
180.867900 	 11.129320 
181.851400 	 11.176800 
182.857300 	 11.231560 
183.829600 	 11.284440 
184.813300 	 11.331070 
185.809600 	 11.391790 
186.820100 	 11.458750 
187.851400 	 11.527280 
188.872300 	 11.588840 
189.889900 	 11.640150 
190.900600 	 11.686830 
191.870700 	 11.719590 
192.865500 	 11.757140 
193.851700 	 11.806360 
194.851100 	 11.843090 
195.857700 	 11.888470 
196.861500 	 11.941880 
197.879300 	 11.983370 
198.882300 	 12.034880 
199.906700 	 12.085420 
200.925900 	 12.121690 
201.930900 	 12.152100 
202.928800 	 12.176380 
203.914400 	 12.197470 
204.895300 	 12.220830 
205.861200 	 12.248750 
206.844600 	 12.287730 
207.841400 	 12.320580 
208.830800 	 12.351540 
209.841400 	 12.387580 
210.849200 	 12.407450 
211.840400 	 12.430230 
212.861500 	 12.459090 
213.857500 	 12.478450 
214.854300 	 12.502720 
215.847800 	 12.525380 
216.833100 	 12.544610 
217.830000 	 12.567600 
218.841000 	 12.589490 
219.842000 	 12.613020 
220.835400 	 12.631070 
221.829800 	 12.641110 
222.820700 	 12.654600 
223.832300 	 12.667340 
224.833600 	 12.683630 
225.873800 	 12.711260 
226.872400 	 12.729220 
227.856900 	 12.744800 
228.872700 	 12.758370 
229.841500 	 12.761650 
230.827900 	 12.772530 
231.823200 	 12.781300 
232.793300 	 12.788460 
