WE1 Volts(mV)    WE1 Idir (uA) 
-800.041100 	 -6.698382 
-799.792400 	 -6.680573 
-799.297600 	 -6.659282 
-798.551300 	 -6.627720 
-797.540600 	 -6.593317 
-796.565900 	 -6.565638 
-795.577000 	 -6.531885 
-794.580500 	 -6.504314 
-793.600900 	 -6.470041 
-792.597800 	 -6.442564 
-791.584200 	 -6.416780 
-790.582600 	 -6.391704 
-789.576400 	 -6.370430 
-788.565200 	 -6.351677 
-787.577000 	 -6.339057 
-786.592700 	 -6.324650 
-785.602000 	 -6.307649 
-784.606300 	 -6.286500 
-783.609800 	 -6.265088 
-782.620500 	 -6.242621 
-781.618700 	 -6.221711 
-780.631700 	 -6.200968 
-779.627300 	 -6.178516 
-778.612700 	 -6.155336 
-777.614300 	 -6.133914 
-776.585900 	 -6.109738 
-775.579100 	 -6.082472 
-774.583000 	 -6.060397 
-773.581000 	 -6.038832 
-772.584500 	 -6.023726 
-771.579500 	 -6.010822 
-770.562100 	 -5.996803 
-769.553700 	 -5.981569 
-768.552400 	 -5.966602 
-767.563200 	 -5.954094 
-766.585800 	 -5.940378 
-765.585400 	 -5.928131 
-764.596100 	 -5.912700 
-763.607500 	 -5.895690 
-762.605600 	 -5.878554 
-761.630700 	 -5.864286 
-760.641400 	 -5.850190 
-759.634000 	 -5.832288 
-758.616000 	 -5.814957 
-757.608200 	 -5.795008 
-756.627600 	 -5.775740 
-755.636200 	 -5.759471 
-754.676900 	 -5.742715 
-753.705000 	 -5.724354 
-752.676300 	 -5.705186 
-751.674900 	 -5.686079 
-750.648400 	 -5.668387 
-749.598400 	 -5.651837 
-748.593300 	 -5.639222 
-747.593400 	 -5.627389 
-746.603000 	 -5.613991 
-745.630700 	 -5.601005 
-744.650100 	 -5.585396 
-743.657000 	 -5.569136 
-742.669300 	 -5.552957 
-741.669700 	 -5.535903 
-740.664100 	 -5.519638 
-739.663500 	 -5.503644 
-738.650800 	 -5.487889 
-737.663600 	 -5.471653 
-736.673500 	 -5.455730 
-735.674900 	 -5.442211 
-734.671500 	 -5.429548 
-733.644300 	 -5.418818 
-732.640900 	 -5.406500 
-731.628700 	 -5.393031 
-730.605000 	 -5.378068 
-729.621900 	 -5.363735 
-728.610900 	 -5.349926 
-727.602200 	 -5.334963 
-726.633400 	 -5.319109 
-725.607200 	 -5.301907 
-724.619900 	 -5.285977 
-723.633300 	 -5.272238 
-722.617400 	 -5.261340 
-721.636400 	 -5.252020 
-720.627000 	 -5.241303 
-719.617900 	 -5.229745 
-718.621600 	 -5.216633 
-717.630700 	 -5.203318 
-716.654200 	 -5.191331 
-715.681400 	 -5.177806 
-714.670500 	 -5.163672 
-713.657900 	 -5.147101 
-712.648200 	 -5.133136 
-711.634600 	 -5.119096 
-710.668500 	 -5.105039 
-709.676200 	 -5.092856 
-708.675200 	 -5.078861 
-707.674000 	 -5.067076 
-706.657500 	 -5.058448 
-705.669300 	 -5.047765 
-704.667800 	 -5.037592 
-703.659400 	 -5.026471 
-702.662000 	 -5.012341 
-701.642600 	 -4.999764 
-700.644600 	 -4.984665 
-699.680200 	 -4.974584 
-698.690600 	 -4.963315 
-697.705300 	 -4.956442 
-696.721500 	 -4.947005 
-695.696300 	 -4.932520 
-694.699300 	 -4.922110 
-693.690600 	 -4.908352 
-692.672500 	 -4.897007 
-691.682400 	 -4.885210 
-690.676900 	 -4.872602 
-689.670400 	 -4.859154 
-688.672100 	 -4.847697 
-687.680200 	 -4.836245 
-686.697800 	 -4.824591 
-685.722400 	 -4.814348 
-684.732800 	 -4.805168 
-683.733900 	 -4.796244 
-682.693200 	 -4.785632 
-681.690700 	 -4.774790 
-680.663700 	 -4.762260 
-679.639000 	 -4.750596 
-678.664400 	 -4.740070 
-677.646200 	 -4.730319 
-676.679500 	 -4.718460 
-675.703400 	 -4.705426 
-674.698600 	 -4.693589 
-673.703000 	 -4.682404 
-672.695200 	 -4.673473 
-671.675700 	 -4.667143 
-670.657300 	 -4.660056 
-669.646900 	 -4.650141 
-668.619300 	 -4.641511 
-667.629400 	 -4.631084 
-666.649400 	 -4.621655 
-665.659700 	 -4.612945 
-664.680500 	 -4.602056 
-663.672300 	 -4.589459 
-662.675800 	 -4.578483 
-661.680800 	 -4.570521 
-660.669800 	 -4.564115 
-659.684800 	 -4.558960 
-658.683700 	 -4.551419 
-657.682300 	 -4.542921 
-656.685500 	 -4.532302 
-655.666900 	 -4.522606 
-654.691500 	 -4.512897 
-653.705700 	 -4.501198 
-652.716800 	 -4.490774 
-651.728100 	 -4.480512 
-650.666400 	 -4.470091 
-649.644500 	 -4.461482 
-648.650500 	 -4.454705 
-647.641300 	 -4.448810 
-646.692300 	 -4.443416 
-645.705400 	 -4.437992 
-644.703700 	 -4.430022 
-643.710900 	 -4.420658 
-642.701300 	 -4.410423 
-641.709800 	 -4.399137 
-640.698900 	 -4.388380 
-639.700100 	 -4.378066 
-638.691700 	 -4.368712 
-637.675400 	 -4.357286 
-636.690700 	 -4.348255 
-635.700200 	 -4.340343 
-634.708400 	 -4.333349 
-633.730300 	 -4.329803 
-632.717500 	 -4.323579 
-631.713300 	 -4.316019 
-630.694100 	 -4.308068 
-629.690400 	 -4.298818 
-628.677100 	 -4.290063 
-627.657200 	 -4.282362 
-626.667700 	 -4.272563 
-625.651800 	 -4.261319 
-624.670700 	 -4.251502 
-623.682100 	 -4.243326 
-622.653400 	 -4.237020 
-621.642200 	 -4.232985 
-620.634200 	 -4.228305 
-619.620700 	 -4.220657 
-618.629300 	 -4.212304 
-617.632400 	 -4.204909 
-616.645300 	 -4.196341 
-615.671000 	 -4.188330 
-614.697500 	 -4.180628 
-613.708300 	 -4.169783 
-612.695300 	 -4.161140 
-611.660900 	 -4.153061 
-610.666600 	 -4.146513 
-609.671400 	 -4.142514 
-608.689200 	 -4.136576 
-607.713600 	 -4.131598 
-606.707300 	 -4.125019 
-605.701500 	 -4.116331 
-604.699000 	 -4.109609 
-603.708000 	 -4.100457 
-602.715000 	 -4.091317 
-601.731100 	 -4.083741 
-600.714800 	 -4.075684 
-599.704800 	 -4.069325 
-598.687400 	 -4.064574 
-597.711000 	 -4.059860 
-596.740500 	 -4.055239 
-595.750100 	 -4.050032 
-594.801800 	 -4.043324 
-593.769200 	 -4.035700 
-592.733300 	 -4.026180 
-591.732400 	 -4.018528 
-590.701900 	 -4.010476 
-589.702600 	 -4.002933 
-588.742800 	 -3.998513 
-587.752300 	 -3.988455 
-586.755400 	 -3.979541 
-585.785400 	 -3.973062 
-584.784700 	 -3.966983 
-583.797500 	 -3.965032 
-582.815700 	 -3.962191 
-581.808800 	 -3.956680 
-580.798000 	 -3.949005 
-579.774500 	 -3.939967 
-578.761700 	 -3.932469 
-577.765000 	 -3.926438 
-576.777200 	 -3.918799 
-575.795000 	 -3.911035 
-574.775600 	 -3.902694 
-573.746800 	 -3.895073 
-572.714000 	 -3.889957 
-571.697400 	 -3.886775 
-570.700100 	 -3.883236 
-569.728700 	 -3.877830 
-568.733500 	 -3.870796 
-567.729600 	 -3.864039 
-566.742600 	 -3.857529 
-565.732800 	 -3.851110 
-564.755800 	 -3.845589 
-563.768600 	 -3.836937 
-562.754400 	 -3.830755 
-561.762200 	 -3.825642 
-560.751500 	 -3.820792 
-559.753200 	 -3.819427 
-558.786900 	 -3.813096 
-557.769700 	 -3.808198 
-556.780200 	 -3.802185 
-555.804700 	 -3.793393 
-554.778100 	 -3.788325 
-553.816000 	 -3.781673 
-552.812800 	 -3.772834 
-551.810500 	 -3.767028 
-550.824000 	 -3.759148 
-549.791700 	 -3.752445 
-548.792600 	 -3.748615 
-547.772000 	 -3.742669 
-546.803600 	 -3.741018 
-545.840800 	 -3.736147 
-544.831300 	 -3.730113 
-543.841900 	 -3.726311 
-542.817600 	 -3.720266 
-541.775800 	 -3.713889 
-540.810300 	 -3.709400 
-539.828900 	 -3.703238 
-538.809900 	 -3.694302 
-537.805300 	 -3.687776 
-536.758100 	 -3.682599 
-535.720200 	 -3.678288 
-534.730800 	 -3.676319 
-533.758900 	 -3.673738 
-532.793700 	 -3.670787 
-531.816900 	 -3.665832 
-530.834900 	 -3.659818 
-529.828800 	 -3.653532 
-528.810900 	 -3.645427 
-527.799000 	 -3.638119 
-526.770900 	 -3.631164 
-525.752700 	 -3.625093 
-524.784500 	 -3.620389 
-523.788700 	 -3.616190 
-522.802600 	 -3.612380 
-521.809600 	 -3.608385 
-520.790000 	 -3.604250 
-519.787400 	 -3.599773 
-518.767000 	 -3.595191 
-517.762800 	 -3.587432 
-516.743100 	 -3.579292 
-515.738300 	 -3.572122 
-514.729600 	 -3.565580 
-513.735800 	 -3.561712 
-512.743400 	 -3.556331 
-511.741900 	 -3.551125 
-510.756500 	 -3.547667 
-509.755900 	 -3.545619 
-508.752100 	 -3.545507 
-507.757000 	 -3.542574 
-506.757100 	 -3.537266 
-505.764900 	 -3.530975 
-504.755800 	 -3.523382 
-503.755000 	 -3.518687 
-502.763900 	 -3.513849 
-501.738600 	 -3.508316 
-500.754800 	 -3.502627 
-499.749000 	 -3.494981 
-498.750200 	 -3.489469 
-497.780600 	 -3.486407 
-496.778800 	 -3.485244 
-495.790800 	 -3.485602 
-494.804200 	 -3.483305 
-493.792600 	 -3.478213 
-492.802200 	 -3.473418 
-491.795800 	 -3.466933 
-490.776600 	 -3.461191 
-489.787700 	 -3.456131 
-488.807100 	 -3.448515 
-487.797200 	 -3.442388 
-486.791700 	 -3.437653 
-485.787800 	 -3.433769 
-484.759600 	 -3.431267 
-483.757400 	 -3.428255 
-482.778600 	 -3.425058 
-481.791700 	 -3.420953 
-480.807700 	 -3.416440 
-479.844700 	 -3.412239 
-478.867500 	 -3.406392 
-477.838700 	 -3.399513 
-476.833600 	 -3.394509 
-475.797600 	 -3.388782 
-474.764800 	 -3.384487 
-473.786600 	 -3.381980 
-472.801400 	 -3.378321 
-471.820900 	 -3.375894 
-470.812600 	 -3.373318 
-469.811000 	 -3.369836 
-468.788500 	 -3.365428 
-467.763800 	 -3.360264 
-466.782700 	 -3.354999 
-465.774900 	 -3.350015 
-464.758200 	 -3.345281 
-463.773400 	 -3.342476 
-462.764700 	 -3.336183 
-461.751600 	 -3.331148 
-460.782100 	 -3.327015 
-459.797900 	 -3.323171 
-458.797600 	 -3.322512 
-457.823900 	 -3.321221 
-456.833900 	 -3.318941 
-455.821800 	 -3.313352 
-454.826100 	 -3.308138 
-453.800300 	 -3.302138 
-452.795500 	 -3.297096 
-451.799900 	 -3.292740 
-450.807700 	 -3.286608 
-449.852400 	 -3.280807 
-448.838500 	 -3.275645 
-447.840500 	 -3.273429 
-446.830300 	 -3.272306 
-445.800000 	 -3.270735 
-444.784400 	 -3.268315 
-443.770100 	 -3.264126 
-442.781900 	 -3.260778 
-441.795900 	 -3.258101 
-440.836300 	 -3.254579 
-439.857400 	 -3.250703 
-438.853900 	 -3.244498 
-437.831100 	 -3.239683 
-436.800200 	 -3.237202 
-435.803700 	 -3.234737 
-434.814300 	 -3.234569 
-433.821900 	 -3.232767 
-432.836300 	 -3.229705 
-431.855300 	 -3.225981 
-430.844100 	 -3.222075 
-429.849500 	 -3.217348 
-428.832200 	 -3.212569 
-427.798400 	 -3.208166 
-426.778500 	 -3.202967 
-425.785200 	 -3.199609 
-424.797400 	 -3.195909 
-423.810700 	 -3.192809 
-422.826400 	 -3.189104 
-421.813100 	 -3.185569 
-420.828900 	 -3.182558 
-419.835000 	 -3.179295 
-418.814500 	 -3.176508 
-417.799500 	 -3.171368 
-416.769600 	 -3.165212 
-415.733100 	 -3.159513 
-414.738400 	 -3.154398 
-413.714700 	 -3.149997 
-412.734400 	 -3.145848 
-411.745200 	 -3.140755 
-410.746700 	 -3.137238 
-409.791900 	 -3.135415 
-408.789600 	 -3.134770 
-407.780300 	 -3.134457 
-406.789200 	 -3.131118 
-405.804400 	 -3.129347 
-404.818500 	 -3.126251 
-403.839000 	 -3.120371 
-402.853100 	 -3.117419 
-401.839300 	 -3.111111 
-400.797400 	 -3.105262 
-399.818800 	 -3.102342 
-398.823400 	 -3.098785 
-397.822500 	 -3.095653 
-396.869800 	 -3.096369 
-395.861900 	 -3.096931 
-394.856600 	 -3.093803 
-393.876200 	 -3.092292 
-392.849600 	 -3.084727 
-391.845200 	 -3.078245 
-390.854600 	 -3.075075 
-389.844300 	 -3.069954 
-388.871700 	 -3.067691 
-387.874500 	 -3.062376 
-386.865000 	 -3.060464 
-385.857800 	 -3.056202 
-384.837900 	 -3.052024 
-383.824600 	 -3.050877 
-382.808100 	 -3.046125 
-381.815300 	 -3.043799 
-380.831100 	 -3.040703 
-379.865400 	 -3.036595 
-378.885100 	 -3.030691 
-377.907200 	 -3.025011 
-376.899100 	 -3.019080 
-375.863900 	 -3.013662 
-374.844300 	 -3.010372 
-373.813100 	 -3.007208 
-372.795500 	 -3.004737 
-371.849800 	 -3.002885 
-370.875600 	 -3.001175 
-369.888500 	 -2.999116 
-368.899300 	 -2.995186 
-367.846000 	 -2.989709 
-366.839800 	 -2.983804 
-365.834200 	 -2.978636 
-364.832000 	 -2.975079 
-363.851800 	 -2.972313 
-362.826700 	 -2.966594 
-361.820400 	 -2.961323 
-360.818100 	 -2.956168 
-359.822500 	 -2.952110 
-358.852100 	 -2.950972 
-357.852400 	 -2.950307 
-356.875800 	 -2.948002 
-355.882300 	 -2.944152 
-354.880600 	 -2.940193 
-353.881400 	 -2.935115 
-352.885100 	 -2.932003 
-351.868700 	 -2.928714 
-350.868600 	 -2.924045 
-349.854900 	 -2.917604 
-348.840600 	 -2.911244 
-347.810200 	 -2.906963 
-346.807800 	 -2.904369 
-345.845100 	 -2.903950 
-344.835000 	 -2.902610 
-343.864300 	 -2.899193 
-342.845800 	 -2.896045 
-341.843800 	 -2.892175 
-340.866300 	 -2.887679 
-339.874800 	 -2.883447 
-338.895000 	 -2.876863 
-337.882600 	 -2.870891 
-336.866600 	 -2.866654 
-335.856900 	 -2.863451 
-334.858600 	 -2.862289 
-333.863500 	 -2.860489 
-332.871400 	 -2.859647 
-331.895400 	 -2.856703 
-330.899500 	 -2.852902 
-329.908300 	 -2.850178 
-328.925700 	 -2.844629 
-327.917200 	 -2.840672 
-326.919500 	 -2.836229 
-325.900700 	 -2.831442 
-324.876400 	 -2.826785 
-323.848900 	 -2.821894 
-322.830600 	 -2.816459 
-321.836200 	 -2.812289 
-320.839000 	 -2.809994 
-319.873000 	 -2.807899 
-318.918500 	 -2.806795 
-317.914100 	 -2.802533 
-316.921900 	 -2.797643 
-315.903700 	 -2.792573 
-314.868600 	 -2.787394 
-313.869800 	 -2.783916 
-312.853000 	 -2.778896 
-311.846100 	 -2.772440 
-310.841200 	 -2.767705 
-309.836900 	 -2.764102 
-308.850900 	 -2.762782 
-307.857300 	 -2.762449 
-306.832900 	 -2.760583 
-305.849000 	 -2.756871 
-304.833700 	 -2.751667 
-303.835700 	 -2.747192 
-302.890300 	 -2.744358 
-301.881600 	 -2.740453 
-300.910000 	 -2.737420 
-299.913800 	 -2.731685 
-298.885100 	 -2.724509 
-297.882000 	 -2.722882 
-296.884000 	 -2.721277 
-295.864100 	 -2.722191 
-294.861800 	 -2.722839 
-293.861500 	 -2.719220 
-292.849100 	 -2.715190 
-291.869100 	 -2.710980 
-290.901700 	 -2.706558 
-289.927200 	 -2.701827 
-288.949700 	 -2.695699 
-287.953300 	 -2.688755 
-286.942400 	 -2.682979 
-285.926800 	 -2.676880 
-284.901600 	 -2.674755 
-283.899800 	 -2.673060 
-282.904500 	 -2.671192 
-281.923800 	 -2.670417 
-280.925000 	 -2.666251 
-279.944500 	 -2.661753 
-278.953500 	 -2.655447 
-277.946700 	 -2.648239 
-276.946600 	 -2.641389 
-275.926500 	 -2.634636 
-274.900000 	 -2.629229 
-273.896100 	 -2.624577 
-272.906900 	 -2.619360 
-271.925800 	 -2.616745 
-270.943800 	 -2.615695 
-269.943500 	 -2.612205 
-268.954000 	 -2.610218 
-267.930700 	 -2.604449 
-266.924600 	 -2.597751 
-265.916600 	 -2.592208 
-264.890500 	 -2.587399 
-263.897600 	 -2.583812 
-262.896300 	 -2.578287 
-261.899400 	 -2.572232 
-260.895100 	 -2.565465 
-259.876500 	 -2.559355 
-258.878100 	 -2.554886 
-257.876300 	 -2.552564 
-256.874100 	 -2.548631 
-255.878900 	 -2.544645 
-254.879900 	 -2.538941 
-253.895100 	 -2.534460 
-252.924700 	 -2.529704 
-251.960600 	 -2.523188 
-250.969700 	 -2.516139 
-249.983600 	 -2.506488 
-248.981200 	 -2.496676 
-247.973500 	 -2.490874 
-246.959000 	 -2.483956 
-245.941200 	 -2.478927 
-244.958600 	 -2.477527 
-243.944900 	 -2.470229 
-242.963700 	 -2.463920 
-241.973500 	 -2.457271 
-240.959600 	 -2.445949 
-239.973800 	 -2.440488 
-238.982200 	 -2.434615 
-237.970700 	 -2.426052 
-236.968300 	 -2.418474 
-235.955100 	 -2.408964 
-234.916500 	 -2.400533 
-233.927400 	 -2.394385 
-232.920000 	 -2.387170 
-231.941200 	 -2.378695 
-230.967900 	 -2.370575 
-229.968400 	 -2.359554 
-228.988700 	 -2.350106 
-227.973600 	 -2.337810 
-226.961000 	 -2.327117 
-225.942600 	 -2.316423 
-224.920100 	 -2.304452 
-223.918000 	 -2.295017 
-222.919600 	 -2.281383 
-221.913200 	 -2.267723 
-220.906400 	 -2.257007 
-219.916400 	 -2.245969 
-218.921800 	 -2.234730 
-217.943500 	 -2.222399 
-216.939500 	 -2.207371 
-215.915000 	 -2.189834 
-214.916700 	 -2.173707 
-213.910900 	 -2.158819 
-212.925600 	 -2.143578 
-211.944600 	 -2.126676 
-210.928500 	 -2.108409 
-209.913600 	 -2.089785 
-208.897100 	 -2.071015 
-207.872200 	 -2.055378 
-206.871600 	 -2.040272 
-205.870000 	 -2.021746 
-204.882700 	 -2.003515 
-203.877400 	 -1.982466 
-202.895200 	 -1.961598 
-201.911200 	 -1.942337 
-200.931300 	 -1.920540 
-199.951200 	 -1.896455 
-198.947200 	 -1.868900 
-197.937900 	 -1.840670 
-196.926300 	 -1.813349 
-195.924800 	 -1.787117 
-194.925600 	 -1.762161 
-193.942800 	 -1.736231 
-192.955700 	 -1.708231 
-191.968400 	 -1.679335 
-190.977200 	 -1.647539 
-189.953800 	 -1.611524 
-188.941600 	 -1.575623 
-187.935700 	 -1.535364 
-186.919000 	 -1.493770 
-185.937600 	 -1.454485 
-184.944700 	 -1.412167 
-183.932100 	 -1.371629 
-182.919100 	 -1.332696 
-181.915500 	 -1.289971 
-180.900100 	 -1.247617 
-179.933900 	 -1.201958 
-178.964200 	 -1.151311 
-177.978300 	 -1.095480 
-176.992200 	 -1.035016 
-175.987500 	 -0.975220 
-174.976200 	 -0.915036 
-173.961400 	 -0.854290 
-172.969100 	 -0.796446 
-171.958100 	 -0.734616 
-170.951500 	 -0.668746 
-169.950300 	 -0.604921 
-168.939800 	 -0.534343 
-167.934100 	 -0.458807 
-166.952900 	 -0.383537 
-165.973000 	 -0.302487 
-164.983800 	 -0.219912 
-163.994500 	 -0.138250 
-162.996600 	 -0.056804 
-161.991500 	 0.028422 
-160.987300 	 0.117496 
-159.984400 	 0.208110 
-158.971200 	 0.306539 
-157.936400 	 0.411916 
-156.935000 	 0.511079 
-155.928100 	 0.613610 
-154.927200 	 0.718860 
-153.963600 	 0.815757 
-152.956300 	 0.918921 
-151.972900 	 1.027073 
-150.986800 	 1.135611 
-150.000700 	 1.251629 
-149.018300 	 1.373734 
-148.008800 	 1.496896 
-147.024100 	 1.620822 
-146.007800 	 1.745846 
-145.002200 	 1.873991 
-144.001200 	 1.996658 
-143.001100 	 2.115515 
-142.005100 	 2.241817 
-141.021200 	 2.361142 
-140.047300 	 2.489225 
-139.043200 	 2.630606 
-138.032500 	 2.768947 
-137.010500 	 2.911290 
-136.011700 	 3.052793 
-135.002300 	 3.186003 
-134.008900 	 3.318550 
-133.018500 	 3.448238 
-132.010200 	 3.578598 
-131.007800 	 3.708668 
-130.034600 	 3.834657 
-129.022000 	 3.969200 
-128.008500 	 4.103165 
-127.014800 	 4.238231 
-125.983000 	 4.379803 
-124.996700 	 4.508793 
-123.993300 	 4.633682 
-122.994100 	 4.756846 
-122.005000 	 4.871704 
-121.004200 	 4.991262 
-120.025300 	 5.112613 
-119.029400 	 5.234098 
-118.037400 	 5.358884 
-117.038400 	 5.478349 
-116.022200 	 5.594101 
-115.011400 	 5.705547 
-114.002000 	 5.807528 
-113.005700 	 5.909825 
-112.010300 	 6.005319 
-111.021700 	 6.099779 
-110.015100 	 6.198034 
-109.008400 	 6.289653 
-108.013200 	 6.385458 
-106.970300 	 6.480074 
-105.960400 	 6.564734 
-104.935300 	 6.647365 
-103.938000 	 6.718939 
-102.964000 	 6.776000 
-101.974900 	 6.836077 
-101.007100 	 6.891011 
-100.001700 	 6.947631 
-99.016270 	 7.006828 
-98.034010 	 7.060839 
-97.016490 	 7.116755 
-96.030270 	 7.165361 
-95.025020 	 7.212763 
-94.006490 	 7.259238 
-93.037060 	 7.294734 
-92.043140 	 7.331301 
-91.043240 	 7.363801 
-90.065130 	 7.386854 
-89.060250 	 7.412369 
-88.047600 	 7.437835 
-87.057400 	 7.457444 
-86.040440 	 7.475038 
-85.042720 	 7.493984 
-84.040730 	 7.501937 
-83.044790 	 7.508138 
-82.043540 	 7.515407 
-81.030510 	 7.520512 
-80.020550 	 7.522472 
-79.002300 	 7.526955 
-77.995520 	 7.531064 
-76.990640 	 7.524663 
-76.011260 	 7.520353 
-75.004620 	 7.513659 
-74.003800 	 7.495802 
-73.012100 	 7.481244 
-72.004100 	 7.464173 
-71.024830 	 7.440903 
-70.046330 	 7.420921 
-69.048900 	 7.401592 
-68.036820 	 7.383965 
-67.024170 	 7.365411 
-65.993180 	 7.343389 
-64.990540 	 7.318624 
-63.975190 	 7.285914 
-62.996530 	 7.253500 
-61.999280 	 7.225779 
-60.994780 	 7.193989 
-60.022910 	 7.165079 
-59.007310 	 7.138062 
-58.030810 	 7.102672 
-57.024380 	 7.070032 
-55.994930 	 7.037748 
-54.969290 	 7.001813 
-53.951000 	 6.965450 
-52.948750 	 6.925358 
-51.968350 	 6.885091 
-50.999070 	 6.844659 
-50.027180 	 6.807484 
-49.038270 	 6.776877 
-48.033650 	 6.741049 
-47.032550 	 6.705102 
-46.007660 	 6.668184 
-45.009380 	 6.624575 
-44.005520 	 6.582710 
-42.986300 	 6.542686 
-42.023100 	 6.500477 
-41.003090 	 6.461079 
-40.026580 	 6.423514 
-39.031470 	 6.385636 
-38.013260 	 6.350785 
-37.007030 	 6.314686 
-35.991730 	 6.278252 
-34.982280 	 6.238568 
-33.973630 	 6.195933 
-32.986030 	 6.154502 
-31.991300 	 6.111468 
-31.002480 	 6.071384 
-29.986280 	 6.034572 
-29.002110 	 5.996084 
-27.980650 	 5.959019 
-26.979760 	 5.921412 
-25.995060 	 5.880796 
-24.987550 	 5.843554 
-23.997520 	 5.805723 
-22.998220 	 5.770379 
-22.015880 	 5.736206 
-21.021330 	 5.699743 
-20.032300 	 5.662957 
-19.032870 	 5.624788 
-18.007310 	 5.587788 
-16.992270 	 5.553210 
-15.973100 	 5.518901 
-14.981080 	 5.484383 
-13.999570 	 5.449401 
-13.032710 	 5.411448 
-12.050340 	 5.378772 
-11.042320 	 5.348001 
-10.039310 	 5.315833 
-9.010946 	 5.286226 
-8.003665 	 5.251014 
-6.990672 	 5.214305 
-5.971387 	 5.180314 
-4.942065 	 5.147702 
-3.971057 	 5.112563 
-3.007793 	 5.079961 
-2.057473 	 5.046720 
-1.126205 	 5.014151 
-0.131505 	 4.987106 
0.854973 	 4.960608 
1.875000 	 4.933725 
2.875726 	 4.902946 
3.849574 	 4.872515 
4.855237 	 4.838937 
5.845117 	 4.805721 
6.836399 	 4.777361 
