WE1 Volts(mV)    WE1 Idir (uA) 
-800.075900 	 -11.072860 
-799.831800 	 -11.053020 
-799.341300 	 -11.022590 
-798.575700 	 -10.979030 
-797.544100 	 -10.924600 
-796.538300 	 -10.883250 
-795.534200 	 -10.843770 
-794.551300 	 -10.807090 
-793.575000 	 -10.772860 
-792.569700 	 -10.737000 
-791.575000 	 -10.699400 
-790.591400 	 -10.662750 
-789.604900 	 -10.624260 
-788.627900 	 -10.586400 
-787.635300 	 -10.548870 
-786.629100 	 -10.509760 
-785.621600 	 -10.471710 
-784.590000 	 -10.433730 
-783.568800 	 -10.398640 
-782.570700 	 -10.366150 
-781.580100 	 -10.333890 
-780.602200 	 -10.301900 
-779.616900 	 -10.269400 
-778.608300 	 -10.236060 
-777.601100 	 -10.202060 
-776.597700 	 -10.167810 
-775.601000 	 -10.133070 
-774.602200 	 -10.098620 
-773.569900 	 -10.065290 
-772.563800 	 -10.032290 
-771.535600 	 -9.998255 
-770.535200 	 -9.967989 
-769.579600 	 -9.939661 
-768.577000 	 -9.912260 
-767.597500 	 -9.885379 
-766.603300 	 -9.856519 
-765.581100 	 -9.825655 
-764.597000 	 -9.794914 
-763.603200 	 -9.764162 
-762.611700 	 -9.733689 
-761.631200 	 -9.702739 
-760.628600 	 -9.669461 
-759.638700 	 -9.637135 
-758.632800 	 -9.606069 
-757.617700 	 -9.577940 
-756.618000 	 -9.553268 
-755.609500 	 -9.528215 
-754.612900 	 -9.501534 
-753.624300 	 -9.473841 
-752.631500 	 -9.445909 
-751.643600 	 -9.418846 
-750.662700 	 -9.391937 
-749.655800 	 -9.363625 
-748.652800 	 -9.334693 
-747.628400 	 -9.304917 
-746.596400 	 -9.276797 
-745.597500 	 -9.250576 
-744.600300 	 -9.224995 
-743.589600 	 -9.201223 
-742.610900 	 -9.177465 
-741.619800 	 -9.153398 
-740.617700 	 -9.129023 
-739.643600 	 -9.104067 
-738.654100 	 -9.077897 
-737.664900 	 -9.050308 
-736.669300 	 -9.022343 
-735.657400 	 -8.995937 
-734.645800 	 -8.970123 
-733.625600 	 -8.947386 
-732.625700 	 -8.925576 
-731.653300 	 -8.901923 
-730.657800 	 -8.878668 
-729.675700 	 -8.855722 
-728.691000 	 -8.831305 
-727.664700 	 -8.806660 
-726.647300 	 -8.781553 
-725.625500 	 -8.753886 
-724.604800 	 -8.728193 
-723.605200 	 -8.703585 
-722.608200 	 -8.678361 
-721.623400 	 -8.653296 
-720.605600 	 -8.629175 
-719.611000 	 -8.607932 
-718.611400 	 -8.587930 
-717.600100 	 -8.567697 
-716.611600 	 -8.546589 
-715.615500 	 -8.522944 
-714.608800 	 -8.498448 
-713.607200 	 -8.476234 
-712.638100 	 -8.453973 
-711.646500 	 -8.431727 
-710.661400 	 -8.408878 
-709.673800 	 -8.384645 
-708.650800 	 -8.360856 
-707.621400 	 -8.338591 
-706.598300 	 -8.320266 
-705.598300 	 -8.302601 
-704.600800 	 -8.284584 
-703.630600 	 -8.265280 
-702.675200 	 -8.245096 
-701.673900 	 -8.223399 
-700.693700 	 -8.201958 
-699.689800 	 -8.180286 
-698.669600 	 -8.156324 
-697.659800 	 -8.135027 
-696.622700 	 -8.114004 
-695.628200 	 -8.093745 
-694.623500 	 -8.074533 
-693.639900 	 -8.055557 
-692.670700 	 -8.037469 
-691.665900 	 -8.019081 
-690.694100 	 -7.999735 
-689.699500 	 -7.979307 
-688.700000 	 -7.956182 
-687.719200 	 -7.933907 
-686.702300 	 -7.912334 
-685.687200 	 -7.890226 
-684.692900 	 -7.873726 
-683.695400 	 -7.852496 
-682.688900 	 -7.831740 
-681.712900 	 -7.812967 
-680.706300 	 -7.792799 
-679.696100 	 -7.774858 
-678.711100 	 -7.758099 
-677.719200 	 -7.738405 
-676.715900 	 -7.715901 
-675.704100 	 -7.695503 
-674.680000 	 -7.672716 
-673.675200 	 -7.654116 
-672.687100 	 -7.633380 
-671.701400 	 -7.615883 
-670.721300 	 -7.596921 
-669.703300 	 -7.578934 
-668.694900 	 -7.564364 
-667.683600 	 -7.546188 
-666.675900 	 -7.526572 
-665.686800 	 -7.504621 
-664.695100 	 -7.478193 
-663.699700 	 -7.449989 
-662.708300 	 -7.429753 
-661.704000 	 -7.408400 
-660.692300 	 -7.388931 
-659.697600 	 -7.371031 
-658.707500 	 -7.350489 
-657.722500 	 -7.332816 
-656.713000 	 -7.317384 
-655.718100 	 -7.303826 
-654.706800 	 -7.288238 
-653.702200 	 -7.270560 
-652.715900 	 -7.254313 
-651.725500 	 -7.237124 
-650.720000 	 -7.220669 
-649.718400 	 -7.204379 
-648.722800 	 -7.185563 
-647.714200 	 -7.166364 
-646.714100 	 -7.148224 
-645.710300 	 -7.130798 
-644.703500 	 -7.114953 
-643.687500 	 -7.099515 
-642.686600 	 -7.086186 
-641.683600 	 -7.072437 
-640.678000 	 -7.057222 
-639.697900 	 -7.043049 
-638.693400 	 -7.025772 
-637.682500 	 -7.006021 
-636.686200 	 -6.988889 
-635.677300 	 -6.971733 
-634.675300 	 -6.954826 
-633.676900 	 -6.941799 
-632.681800 	 -6.927236 
-631.691800 	 -6.912226 
-630.689500 	 -6.898667 
-629.710700 	 -6.884399 
-628.699400 	 -6.869960 
-627.686200 	 -6.853591 
-626.682400 	 -6.836221 
-625.671300 	 -6.818613 
-624.676000 	 -6.800210 
-623.655700 	 -6.784983 
-622.663100 	 -6.769013 
-621.658800 	 -6.751039 
-620.648700 	 -6.736435 
-619.666200 	 -6.721414 
-618.649500 	 -6.708823 
-617.647900 	 -6.697351 
-616.665500 	 -6.683909 
-615.656400 	 -6.669188 
-614.670500 	 -6.653704 
-613.675800 	 -6.638317 
-612.678800 	 -6.623575 
-611.689100 	 -6.609082 
-610.703500 	 -6.592857 
-609.719800 	 -6.577047 
-608.706700 	 -6.560397 
-607.719400 	 -6.546568 
-606.724100 	 -6.534965 
-605.702000 	 -6.524099 
-604.704700 	 -6.513456 
-603.685400 	 -6.500983 
-602.681500 	 -6.487848 
-601.692700 	 -6.474605 
-600.731100 	 -6.461068 
-599.755700 	 -6.446573 
-598.760800 	 -6.431658 
-597.756600 	 -6.416212 
-596.731400 	 -6.403114 
-595.718300 	 -6.389795 
-594.710000 	 -6.377681 
-593.713300 	 -6.365519 
-592.719300 	 -6.352688 
-591.742900 	 -6.340296 
-590.763200 	 -6.327161 
-589.789800 	 -6.314413 
-588.818000 	 -6.299644 
-587.789300 	 -6.284404 
-586.775500 	 -6.268844 
-585.751800 	 -6.254035 
-584.700400 	 -6.239714 
-583.716300 	 -6.227307 
-582.736300 	 -6.215675 
-581.752000 	 -6.203267 
-580.793900 	 -6.193296 
-579.782300 	 -6.181905 
-578.749400 	 -6.171298 
-577.748800 	 -6.158529 
-576.736100 	 -6.143460 
-575.763300 	 -6.128796 
-574.784300 	 -6.113907 
-573.766200 	 -6.100717 
-572.766300 	 -6.087084 
-571.752500 	 -6.072598 
-570.732500 	 -6.058546 
-569.741600 	 -6.047525 
-568.733500 	 -6.037984 
-567.710000 	 -6.029672 
-566.724500 	 -6.020302 
-565.701400 	 -6.009426 
-564.690200 	 -5.997376 
-563.729900 	 -5.984939 
-562.747700 	 -5.973848 
-561.777800 	 -5.961178 
-560.803300 	 -5.947749 
-559.784500 	 -5.934139 
-558.788800 	 -5.919501 
-557.792400 	 -5.907401 
-556.801000 	 -5.898535 
-555.804600 	 -5.889768 
-554.775600 	 -5.880627 
-553.787200 	 -5.870250 
-552.775000 	 -5.859685 
-551.787000 	 -5.848731 
-550.802900 	 -5.838170 
-549.815000 	 -5.827524 
-548.805600 	 -5.814077 
-547.786100 	 -5.801160 
-546.782600 	 -5.788130 
-545.755200 	 -5.776112 
-544.744900 	 -5.765966 
-543.759600 	 -5.756863 
-542.761600 	 -5.749693 
-541.748200 	 -5.740573 
-540.757400 	 -5.731598 
-539.748500 	 -5.721688 
-538.755500 	 -5.709903 
-537.770000 	 -5.698771 
-536.778000 	 -5.686011 
-535.784700 	 -5.673884 
-534.773300 	 -5.662213 
-533.777600 	 -5.651722 
-532.789000 	 -5.641506 
-531.808300 	 -5.631905 
-530.817000 	 -5.624204 
-529.818500 	 -5.614842 
-528.805200 	 -5.604707 
-527.787400 	 -5.593718 
-526.809400 	 -5.579251 
-525.815600 	 -5.568093 
-524.823800 	 -5.556466 
-523.824000 	 -5.546367 
-522.808300 	 -5.537127 
-521.810600 	 -5.525625 
-520.830700 	 -5.516752 
-519.832000 	 -5.507972 
-518.836400 	 -5.499599 
-517.822300 	 -5.490249 
-516.801200 	 -5.478436 
-515.764300 	 -5.470003 
-514.756300 	 -5.460968 
-513.769400 	 -5.452824 
-512.755000 	 -5.445424 
-511.795400 	 -5.432707 
-510.792600 	 -5.422774 
-509.765900 	 -5.412003 
-508.766000 	 -5.403430 
-507.762100 	 -5.395156 
-506.757300 	 -5.385695 
-505.788700 	 -5.379125 
-504.812800 	 -5.371340 
-503.806500 	 -5.363981 
-502.802800 	 -5.354441 
-501.765400 	 -5.343872 
-500.768300 	 -5.333217 
-499.769500 	 -5.322595 
-498.776600 	 -5.314429 
-497.804700 	 -5.304066 
-496.773200 	 -5.292718 
-495.780200 	 -5.281998 
-494.799500 	 -5.272974 
-493.826600 	 -5.263984 
-492.841300 	 -5.258183 
-491.832800 	 -5.251827 
-490.798200 	 -5.241868 
-489.781100 	 -5.233512 
-488.782000 	 -5.223058 
-487.783900 	 -5.215009 
-486.832500 	 -5.206841 
-485.831500 	 -5.197804 
-484.846600 	 -5.188046 
-483.859700 	 -5.175117 
-482.836300 	 -5.165403 
-481.837800 	 -5.157625 
-480.832100 	 -5.150953 
-479.831900 	 -5.145562 
-478.835500 	 -5.137617 
-477.818200 	 -5.130354 
-476.816000 	 -5.122838 
-475.801800 	 -5.114411 
-474.814400 	 -5.106380 
-473.842400 	 -5.096094 
-472.846300 	 -5.085078 
-471.833600 	 -5.074999 
-470.816800 	 -5.066422 
-469.778000 	 -5.059000 
-468.759000 	 -5.053458 
-467.763500 	 -5.048108 
-466.755600 	 -5.041273 
-465.773200 	 -5.032712 
-464.770700 	 -5.022751 
-463.764600 	 -5.012928 
-462.758200 	 -5.001386 
-461.749100 	 -4.992231 
-460.759200 	 -4.983382 
-459.798100 	 -4.973817 
-458.797900 	 -4.966498 
-457.814200 	 -4.958126 
-456.843900 	 -4.950043 
-455.830000 	 -4.943233 
-454.859700 	 -4.936930 
-453.859200 	 -4.929396 
-452.837100 	 -4.920844 
-451.811400 	 -4.910486 
-450.776800 	 -4.900059 
-449.765900 	 -4.890772 
-448.774100 	 -4.882679 
-447.810200 	 -4.876059 
-446.832700 	 -4.866385 
-445.842300 	 -4.856581 
-444.846400 	 -4.848433 
-443.810700 	 -4.840182 
-442.790600 	 -4.833872 
-441.806300 	 -4.829512 
-440.801100 	 -4.822198 
-439.828300 	 -4.814440 
-438.849900 	 -4.806273 
-437.812000 	 -4.796977 
-436.805200 	 -4.789625 
-435.793500 	 -4.782034 
-434.789900 	 -4.775367 
-433.812000 	 -4.768346 
-432.805200 	 -4.759388 
-431.820300 	 -4.751279 
-430.815200 	 -4.744714 
-429.804300 	 -4.737780 
-428.823700 	 -4.733062 
-427.808700 	 -4.725522 
-426.809100 	 -4.716535 
-425.808400 	 -4.707322 
-424.787800 	 -4.697027 
-423.785300 	 -4.688923 
-422.773100 	 -4.680948 
-421.768800 	 -4.671296 
-420.772500 	 -4.661675 
-419.759300 	 -4.652880 
-418.778200 	 -4.645694 
-417.800800 	 -4.641201 
-416.780500 	 -4.635907 
-415.811500 	 -4.630404 
-414.805700 	 -4.622005 
-413.770400 	 -4.612896 
-412.773300 	 -4.606746 
-411.786500 	 -4.599391 
-410.792800 	 -4.592353 
-409.814100 	 -4.584584 
-408.839300 	 -4.573489 
-407.811400 	 -4.565639 
-406.770300 	 -4.560075 
-405.761800 	 -4.554945 
-404.754300 	 -4.550987 
-403.753300 	 -4.544802 
-402.789500 	 -4.538242 
-401.820400 	 -4.531144 
-400.826700 	 -4.523586 
-399.844500 	 -4.515845 
-398.870000 	 -4.506368 
-397.841100 	 -4.498521 
-396.849700 	 -4.491979 
-395.836300 	 -4.484852 
-394.807300 	 -4.478177 
-393.821900 	 -4.472209 
-392.812800 	 -4.464739 
-391.822000 	 -4.458753 
-390.850100 	 -4.452950 
-389.844000 	 -4.445367 
-388.849800 	 -4.438391 
-387.837300 	 -4.428734 
-386.830600 	 -4.419643 
-385.829000 	 -4.410706 
-384.817700 	 -4.402314 
-383.826200 	 -4.395695 
-382.816500 	 -4.387491 
-381.826100 	 -4.380253 
-380.849500 	 -4.374803 
-379.863600 	 -4.369686 
-378.866100 	 -4.365710 
-377.890900 	 -4.361725 
-376.879100 	 -4.351348 
-375.874400 	 -4.342132 
-374.889600 	 -4.334136 
-373.847100 	 -4.324250 
-372.851200 	 -4.317270 
-371.857700 	 -4.311188 
-370.857400 	 -4.302778 
-369.890900 	 -4.296169 
-368.908900 	 -4.293522 
-367.923300 	 -4.287745 
-366.923600 	 -4.282500 
-365.892700 	 -4.275923 
-364.884100 	 -4.268712 
-363.865100 	 -4.260963 
-362.841700 	 -4.253062 
-361.860200 	 -4.248017 
-360.852500 	 -4.240883 
-359.870400 	 -4.234481 
-358.905700 	 -4.228156 
-357.906900 	 -4.218052 
-356.915400 	 -4.209560 
-355.908100 	 -4.202641 
-354.888600 	 -4.197001 
-353.893500 	 -4.193068 
-352.887300 	 -4.185237 
-351.877700 	 -4.177354 
-350.882100 	 -4.168669 
-349.863600 	 -4.159592 
-348.858900 	 -4.154353 
-347.865100 	 -4.147388 
-346.856000 	 -4.139826 
-345.868700 	 -4.131931 
-344.879100 	 -4.124253 
-343.872300 	 -4.117820 
-342.872100 	 -4.113426 
-341.863100 	 -4.109181 
-340.845600 	 -4.103584 
-339.848000 	 -4.097214 
-338.845600 	 -4.089095 
-337.866900 	 -4.083335 
-336.880200 	 -4.076666 
-335.886400 	 -4.070931 
-334.888800 	 -4.064337 
-333.895800 	 -4.054481 
-332.894500 	 -4.048228 
-331.885700 	 -4.042080 
-330.871100 	 -4.038105 
-329.864100 	 -4.034917 
-328.880700 	 -4.029813 
-327.903600 	 -4.023505 
-326.949000 	 -4.016468 
-325.951500 	 -4.009265 
-324.949000 	 -4.001365 
-323.931800 	 -3.992872 
-322.907300 	 -3.984112 
-321.898800 	 -3.976314 
-320.889100 	 -3.969130 
-319.890300 	 -3.963447 
-318.887300 	 -3.958428 
-317.883700 	 -3.953164 
-316.877300 	 -3.947787 
-315.878900 	 -3.942070 
-314.886200 	 -3.935221 
-313.887900 	 -3.927743 
-312.885600 	 -3.918720 
-311.866400 	 -3.909495 
-310.828600 	 -3.900906 
-309.798500 	 -3.893972 
-308.787300 	 -3.887548 
-307.803900 	 -3.879217 
-306.828200 	 -3.872033 
-305.877700 	 -3.865730 
-304.877700 	 -3.860111 
-303.888200 	 -3.857225 
-302.895900 	 -3.853110 
-301.874700 	 -3.846125 
-300.897300 	 -3.839550 
-299.900500 	 -3.831664 
-298.893700 	 -3.824200 
-297.912200 	 -3.817365 
-296.908500 	 -3.808520 
-295.901300 	 -3.798909 
-294.912200 	 -3.789868 
-293.903800 	 -3.782384 
-292.908400 	 -3.777931 
-291.902000 	 -3.774298 
-290.881700 	 -3.769622 
-289.867200 	 -3.763271 
-288.868600 	 -3.755724 
-287.869300 	 -3.748793 
-286.908800 	 -3.740589 
-285.917600 	 -3.732256 
-284.914600 	 -3.724545 
-283.918000 	 -3.714245 
-282.896700 	 -3.706488 
-281.903600 	 -3.700745 
-280.904500 	 -3.693697 
-279.897800 	 -3.688808 
-278.892000 	 -3.683986 
-277.905700 	 -3.677329 
-276.909400 	 -3.671302 
-275.938200 	 -3.664592 
-274.966500 	 -3.655679 
-273.951800 	 -3.645895 
-272.940300 	 -3.634636 
-271.933300 	 -3.625239 
-270.916800 	 -3.616375 
-269.895500 	 -3.609359 
-268.913300 	 -3.604053 
-267.904200 	 -3.597756 
-266.891600 	 -3.591408 
-265.938600 	 -3.584887 
-264.930900 	 -3.577348 
-263.922100 	 -3.568014 
-262.934100 	 -3.559086 
-261.896300 	 -3.548798 
-260.866500 	 -3.538297 
-259.845700 	 -3.528698 
-258.828500 	 -3.519752 
-257.860200 	 -3.508533 
-256.881600 	 -3.498157 
-255.921900 	 -3.489691 
-254.943100 	 -3.481377 
-253.914200 	 -3.474847 
-252.909200 	 -3.467784 
-251.897400 	 -3.458991 
-250.888000 	 -3.447762 
-249.907700 	 -3.438270 
-248.921300 	 -3.427763 
-247.920000 	 -3.417899 
-246.932700 	 -3.406703 
-245.921900 	 -3.393770 
-244.925700 	 -3.381997 
-243.913700 	 -3.369911 
-242.920600 	 -3.362200 
-241.926800 	 -3.354691 
-240.924500 	 -3.346668 
-239.935400 	 -3.337333 
-238.935300 	 -3.326459 
-237.935300 	 -3.314692 
-236.939300 	 -3.303612 
-235.938800 	 -3.291302 
-234.919500 	 -3.276813 
-233.909400 	 -3.262568 
-232.904600 	 -3.249136 
-231.905800 	 -3.238055 
-230.906500 	 -3.228110 
-229.899600 	 -3.218307 
-228.917200 	 -3.207223 
-227.921100 	 -3.193913 
-226.945600 	 -3.179664 
-225.968700 	 -3.164579 
-224.960100 	 -3.146917 
-223.967100 	 -3.130677 
-222.955600 	 -3.112873 
-221.936800 	 -3.095118 
-220.931400 	 -3.078019 
-219.913500 	 -3.057574 
-218.890800 	 -3.041907 
-217.913200 	 -3.026403 
-216.933600 	 -3.009839 
-215.942100 	 -2.994502 
-214.965600 	 -2.975131 
-213.954000 	 -2.952300 
-212.921800 	 -2.930410 
-211.911800 	 -2.908223 
-210.901100 	 -2.881795 
-209.883900 	 -2.861981 
-208.886700 	 -2.840477 
-207.890700 	 -2.820254 
-206.900900 	 -2.802794 
-205.909300 	 -2.780364 
-204.927600 	 -2.759513 
-203.928200 	 -2.734393 
-202.931800 	 -2.707742 
-201.916900 	 -2.681329 
-200.921100 	 -2.652355 
-199.926100 	 -2.624505 
-198.929600 	 -2.598350 
-197.953600 	 -2.569484 
-196.925600 	 -2.538914 
-195.925400 	 -2.504877 
-194.915800 	 -2.469769 
-193.929500 	 -2.434680 
-192.936000 	 -2.401549 
-191.956600 	 -2.370156 
-190.972400 	 -2.336658 
-189.959100 	 -2.298804 
-188.974200 	 -2.262635 
-187.984100 	 -2.225115 
-186.957400 	 -2.183903 
-185.970800 	 -2.144886 
-184.962900 	 -2.098612 
-183.906500 	 -2.047152 
-182.910200 	 -1.997369 
-181.889000 	 -1.946058 
-180.905300 	 -1.896689 
-179.937600 	 -1.849780 
-178.960700 	 -1.803724 
-177.985400 	 -1.755798 
-176.975800 	 -1.702580 
-175.985200 	 -1.649185 
-174.982600 	 -1.590999 
-173.974900 	 -1.524808 
-172.971800 	 -1.461050 
-171.961400 	 -1.391998 
-170.954800 	 -1.320622 
-169.960100 	 -1.254217 
-168.966600 	 -1.186785 
-167.979600 	 -1.120683 
-166.989100 	 -1.055153 
-165.991500 	 -0.984754 
-165.008400 	 -0.910151 
-163.999200 	 -0.828036 
-163.008200 	 -0.742258 
-162.018700 	 -0.656344 
-161.004900 	 -0.566235 
-160.009700 	 -0.480161 
-158.990000 	 -0.393377 
-157.954900 	 -0.298580 
-156.953200 	 -0.209386 
-155.933000 	 -0.118118 
-154.920900 	 -0.024071 
-153.940100 	 0.067252 
-152.942100 	 0.166777 
-151.977700 	 0.271066 
-151.005000 	 0.375211 
-150.009900 	 0.481167 
-149.031800 	 0.581878 
-148.032700 	 0.680998 
-147.031400 	 0.785326 
-146.023300 	 0.892742 
-144.973900 	 1.012050 
-143.949900 	 1.131057 
-142.940500 	 1.248754 
-141.963200 	 1.366525 
-141.001200 	 1.475941 
-140.018900 	 1.589358 
-139.020900 	 1.703732 
-138.000500 	 1.812857 
-137.000500 	 1.926266 
-136.001800 	 2.042190 
-135.007300 	 2.156933 
-134.016500 	 2.283490 
-133.016100 	 2.409984 
-131.988200 	 2.533575 
-130.973300 	 2.654075 
-129.975000 	 2.764501 
-128.971900 	 2.870920 
-128.001600 	 2.973057 
-127.032400 	 3.079998 
-126.027600 	 3.193492 
-125.023400 	 3.304608 
-124.018100 	 3.423282 
-123.017300 	 3.543667 
-122.013800 	 3.654051 
-121.017900 	 3.769314 
-120.003100 	 3.879168 
-118.983800 	 3.979394 
-117.975200 	 4.079093 
-116.983300 	 4.171750 
-116.017500 	 4.261828 
-115.004800 	 4.352696 
-114.020600 	 4.448321 
-112.997000 	 4.549401 
-111.962900 	 4.644397 
-110.985400 	 4.736688 
-109.991200 	 4.824916 
-108.993000 	 4.899179 
-107.995600 	 4.975215 
-106.977400 	 5.052906 
-105.949000 	 5.119999 
-104.951900 	 5.188295 
-103.932200 	 5.254508 
-102.929200 	 5.313056 
-101.942000 	 5.373323 
-100.929700 	 5.432446 
-99.946970 	 5.486857 
-98.965580 	 5.534192 
-97.993840 	 5.575905 
-97.010250 	 5.617654 
-96.021700 	 5.657389 
-95.026890 	 5.701364 
-93.984000 	 5.749301 
-92.978260 	 5.787543 
-91.980450 	 5.820015 
-90.968350 	 5.849412 
-90.002180 	 5.866769 
-89.012520 	 5.885092 
-88.020720 	 5.903934 
-87.031490 	 5.917900 
-86.028080 	 5.935036 
-85.044710 	 5.949893 
-84.046590 	 5.965957 
-83.029080 	 5.980855 
-82.014270 	 5.991571 
-80.998520 	 6.002905 
-79.976330 	 6.002353 
-78.982100 	 5.995625 
-77.989630 	 5.988631 
-76.996770 	 5.975805 
-76.017810 	 5.966688 
-75.025230 	 5.962217 
-74.024570 	 5.955336 
-73.001110 	 5.950582 
-72.010880 	 5.939770 
-71.007260 	 5.924168 
-70.025800 	 5.906613 
-69.039540 	 5.887461 
-68.022740 	 5.871910 
-67.040750 	 5.851878 
-66.021560 	 5.831041 
-65.035470 	 5.806014 
-64.049900 	 5.781550 
-63.040250 	 5.760197 
-62.046870 	 5.741088 
-61.032760 	 5.718244 
-60.027150 	 5.691653 
-59.025010 	 5.665353 
-58.025690 	 5.632866 
-57.037320 	 5.605692 
-56.018920 	 5.576552 
-55.007150 	 5.549440 
-53.997590 	 5.516453 
-52.981840 	 5.483396 
-51.985010 	 5.451382 
-50.995030 	 5.414877 
-50.000410 	 5.384748 
-49.001460 	 5.356087 
-48.015830 	 5.326285 
-47.031300 	 5.294982 
-46.019040 	 5.264390 
-45.022490 	 5.228136 
-44.016060 	 5.192503 
-42.984980 	 5.158006 
-42.001520 	 5.119740 
-41.009740 	 5.083536 
-40.022560 	 5.046622 
-39.023360 	 5.012326 
-38.003850 	 4.980004 
-36.980830 	 4.948647 
-35.949740 	 4.917056 
-34.953290 	 4.882162 
-33.963180 	 4.845825 
-32.988390 	 4.810821 
-32.006500 	 4.777226 
-31.008300 	 4.743101 
-29.992870 	 4.710731 
-28.980780 	 4.675107 
-27.959930 	 4.638748 
-26.960950 	 4.603655 
-25.980960 	 4.568459 
-24.985650 	 4.536590 
-24.016490 	 4.503947 
-23.023580 	 4.471091 
-22.026000 	 4.438868 
-21.017980 	 4.407117 
-20.004890 	 4.378452 
-19.001040 	 4.349765 
-17.991940 	 4.317736 
-16.972910 	 4.287227 
-15.958640 	 4.252112 
-14.953590 	 4.219371 
-13.964770 	 4.188487 
-13.019020 	 4.154608 
-12.029780 	 4.124310 
-11.019050 	 4.093919 
-10.011310 	 4.064743 
-8.970182 	 4.038691 
-7.961399 	 4.012301 
-6.984431 	 3.984375 
-5.959186 	 3.957112 
-4.936897 	 3.927607 
-3.971519 	 3.893596 
-2.980798 	 3.861991 
-2.029834 	 3.831316 
-1.078160 	 3.801172 
-0.090510 	 3.776312 
0.890949 	 3.753080 
1.877774 	 3.729661 
2.865655 	 3.705048 
3.873531 	 3.680787 
4.878120 	 3.654673 
5.889166 	 3.628139 
